PZ -REF,FP1-REF,FP2-REF,F7 -REF,F3 -REF,FZ -REF,F4 -REF,F8 -REF,T3 -REF,C3 -REF,CZ -REF,C4 -REF,T4 -REF,T5 -REF,P3 -REF,P4 -REF,T6 -REF,O1 -REF,OZ -REF,O2 -REF,Class
,2,-72,-6,-19,-26,-112,-52,-12,10,-99,-10,12,28,-13,-7,4,30,-12,-14,Urge
4,-5,-80,-5,-22,-36,-131,-55,-14,10,-103,-18,-1,24,-13,-12,7,29,-15,-10,Urge
-6,-10,-84,1,-20,-40,-145,-55,-11,16,-101,-23,-12,26,-10,-14,9,29,-8,-7,Urge
-13,-9,-84,7,-14,-40,-154,-55,-7,22,-94,-27,-21,28,-10,-15,10,27,5,-5,Urge
-18,-4,-82,11,-8,-36,-162,-57,-4,26,-88,-32,-29,29,-12,-15,7,24,20,-6,Urge
-22,5,-81,7,-4,-33,-169,-61,-3,27,-85,-40,-37,26,-16,-15,2,18,33,-8,Urge
-26,13,-82,-2,-3,-33,-176,-67,-2,25,-89,-49,-44,19,-21,-19,-5,11,37,-12,Urge
-32,20,-88,-11,-2,-35,-181,-73,1,23,-95,-56,-49,11,-23,-26,-14,2,36,-16,Urge
-38,23,-96,-14,-1,-35,-180,-77,7,24,-100,-60,-52,5,-21,-35,-21,-7,32,-18,Urge
-45,23,-102,-7,4,-32,-175,-78,19,29,-99,-59,-51,4,-15,-46,-27,-13,27,-20,Urge
-48,22,-104,9,12,-26,-169,-76,31,38,-93,-54,-48,8,-5,-58,-31,-13,21,-26,Urge
-49,21,-101,28,21,-18,-166,-70,40,47,-83,-47,-41,17,4,-67,-31,-9,13,-32,Urge
-47,22,-94,41,30,-9,-162,-64,42,55,-68,-37,-30,26,10,-69,-27,-1,5,-34,Urge
-43,24,-85,44,38,2,-156,-55,40,60,-51,-24,-14,33,16,-64,-19,8,-3,-29,Urge
-37,28,-76,42,44,13,-146,-46,37,62,-35,-10,2,39,20,-56,-10,17,-8,-18,Urge
-30,31,-70,41,48,23,-134,-36,34,61,-21,4,18,43,26,-46,-1,24,-7,-3,Urge
-24,33,-66,43,51,33,-119,-26,32,59,-11,18,33,47,32,-37,10,29,0,13,Urge
-20,34,-64,47,50,41,-107,-16,30,55,-7,27,40,48,36,-32,16,31,12,22,Urge
-16,36,-61,51,41,39,-111,-12,24,43,-16,24,34,40,32,-39,11,28,20,16,Urge
-17,36,-61,46,22,26,-129,-18,8,21,-40,8,16,22,17,-57,-4,18,17,-5,Urge
-26,34,-66,29,0,7,-150,-31,-14,-5,-68,-12,-6,-1,-5,-79,-24,3,8,-30,Urge
-45,29,-73,7,-17,-9,-163,-45,-34,-29,-91,-30,-21,-19,-27,-97,-40,-13,-2,-52,Urge
-67,24,-77,-13,-25,-18,-162,-52,-49,-43,-103,-40,-26,-28,-40,-104,-49,-24,-5,-64,Urge
-83,19,-75,-22,-22,-16,-147,-50,-52,-42,-101,-37,-16,-25,-41,-96,-46,-26,0,-59,Urge
-87,15,-66,-19,-7,-4,-118,-37,-42,-27,-86,-20,7,-8,-29,-72,-28,-18,15,-36,Urge
-78,12,-51,-5,14,15,-86,-18,-22,-4,-64,3,37,15,-9,-38,-1,-4,37,-2,Urge
-55,11,-31,15,33,31,-64,3,-1,18,-44,23,61,33,11,-5,25,11,57,31,Urge
-26,10,-12,37,48,39,-58,22,17,35,-30,35,76,43,28,21,47,24,72,59,Urge
0,9,3,54,60,44,-60,40,31,48,-18,42,84,49,42,42,64,35,81,81,Urge
21,7,15,66,71,51,-56,57,41,59,-4,49,90,52,56,58,76,47,87,95,Urge
38,6,29,73,81,59,-44,75,48,70,11,55,96,53,70,70,81,60,89,102,Urge
55,5,43,73,87,68,-28,88,52,79,25,61,99,52,81,75,83,73,85,102,Urge
71,3,56,62,89,76,-12,94,54,85,36,66,100,49,86,72,83,83,78,96,Urge
81,0,66,45,88,82,3,94,55,88,43,68,97,43,83,62,81,85,69,84,Urge
82,-4,72,27,85,86,15,91,54,88,47,68,94,36,74,48,79,78,61,69,Urge
74,-6,74,15,80,85,17,89,51,86,48,68,92,32,65,35,79,70,61,59,Urge
59,-5,74,11,76,81,9,89,50,85,49,71,93,34,62,30,82,65,70,58,Urge
46,1,73,20,74,76,-4,92,53,88,51,79,97,43,67,36,90,65,89,67,Urge
40,9,72,37,73,70,-15,96,57,91,51,89,103,59,81,50,100,72,110,83,Urge
45,17,69,53,74,66,-22,101,60,92,50,100,109,75,98,67,111,83,127,100,Urge
58,21,66,60,75,62,-22,105,60,89,46,109,113,89,110,81,121,95,137,114,Urge
74,21,63,56,76,62,-15,108,59,84,40,112,116,97,116,91,128,105,136,122,Urge
87,18,61,47,76,63,-2,113,57,78,31,108,118,99,117,96,133,113,128,126,Urge
93,12,59,40,74,63,8,117,55,71,20,100,120,97,114,96,138,119,119,127,Urge
92,7,58,35,69,59,11,119,53,62,5,86,120,92,108,94,142,121,111,123,Urge
87,2,56,34,59,51,5,117,51,50,-13,72,116,84,101,89,145,116,107,114,Urge
80,-2,51,37,47,39,-5,112,47,34,-31,57,109,75,92,82,145,106,108,103,Urge
70,-5,45,34,35,27,-13,105,39,14,-48,45,99,67,82,74,139,93,110,90,Urge
60,-7,39,24,24,17,-21,96,28,-8,-61,35,88,59,72,66,129,81,109,80,Urge
51,-8,33,9,17,9,-30,88,16,-25,-69,27,75,52,60,58,116,73,103,76,Urge
43,-9,28,-2,15,5,-41,82,8,-35,-70,21,64,49,50,52,103,71,96,78,Urge
38,-9,23,-9,18,5,-51,77,4,-36,-63,19,58,49,42,48,92,73,90,84,Urge
34,-8,21,-11,27,10,-55,74,7,-29,-49,22,57,52,36,46,82,77,89,90,Urge
33,-5,21,-5,42,19,-53,73,15,-16,-31,32,62,58,36,47,74,82,94,91,Urge
36,1,25,9,61,31,-43,76,27,2,-10,44,69,65,42,50,67,87,104,89,Urge
45,8,32,26,80,46,-29,82,40,19,8,58,79,72,54,55,63,93,118,86,Urge
57,15,40,38,99,61,-12,91,50,35,25,70,90,77,68,63,63,100,130,86,Urge
72,21,49,44,114,75,-2,103,57,48,39,79,99,80,80,72,69,106,137,92,Urge
89,25,57,45,123,87,-1,116,61,58,51,84,105,79,86,81,78,110,137,105,Urge
103,26,63,42,126,94,-8,126,63,64,60,87,107,75,84,89,89,109,135,120,Urge
112,24,66,37,126,100,-14,132,63,66,66,91,109,69,74,94,96,102,128,133,Urge
118,24,68,37,125,105,-13,133,65,67,70,97,111,61,61,93,98,93,118,138,Urge
121,24,70,48,124,109,-1,130,67,66,69,104,112,52,46,87,96,83,105,134,Urge
122,26,73,61,120,112,18,122,69,63,62,109,112,40,30,76,90,73,89,122,Urge
119,28,75,68,113,110,36,112,68,55,48,107,108,28,15,60,82,63,70,106,Urge
111,28,75,65,102,104,44,99,64,43,28,98,99,17,-1,42,74,50,48,91,Urge
98,26,73,54,89,93,38,87,58,27,6,81,85,9,-13,24,67,36,27,81,Urge
79,21,68,41,76,77,19,74,53,11,-16,61,67,8,-20,11,60,21,16,75,Urge
59,16,60,30,63,61,-3,61,49,-4,-35,40,49,11,-21,3,52,10,17,72,Urge
43,10,50,24,52,45,-22,51,47,-16,-48,23,34,17,-16,0,45,7,30,71,Urge
33,5,40,24,44,33,-36,45,46,-23,-56,9,23,23,-8,0,40,13,51,68,Urge
29,1,33,25,37,23,-46,43,44,-25,-61,-3,15,26,-1,0,35,25,72,62,Urge
30,-3,28,24,30,16,-54,43,40,-24,-64,-12,9,24,1,-2,31,38,84,51,Urge
32,-6,24,19,26,12,-60,45,32,-22,-66,-17,5,20,-3,-6,30,48,84,40,Urge
32,-9,23,12,25,11,-64,48,23,-20,-68,-18,3,14,-12,-12,31,52,77,30,Urge
29,-12,25,7,27,12,-66,50,12,-22,-68,-16,1,7,-23,-20,31,49,66,20,Urge
24,-13,29,4,27,12,-66,47,2,-27,-69,-14,-3,-5,-36,-29,27,39,54,9,Urge
19,-13,33,2,23,10,-66,41,-10,-38,-71,-17,-9,-20,-47,-40,20,27,42,0,Urge
14,-14,34,-2,17,6,-67,33,-23,-51,-74,-22,-15,-36,-56,-50,14,15,33,-4,Urge
9,-15,34,-9,12,3,-68,28,-32,-58,-73,-24,-16,-46,-57,-51,14,9,28,4,Urge
3,-13,34,-13,13,7,-66,28,-34,-55,-64,-18,-8,-45,-47,-41,24,12,30,23,Urge
2,-10,35,-14,21,17,-59,36,-25,-40,-47,-2,10,-34,-27,-23,44,25,42,48,Urge
8,-5,40,-11,36,33,-45,54,-6,-15,-22,22,36,-13,0,-1,69,43,60,75,Urge
21,-2,50,-3,55,50,-25,78,22,15,6,46,64,10,29,19,94,60,81,97,Urge
40,1,63,10,70,62,-4,102,51,42,29,64,85,28,53,32,110,70,97,111,Urge
61,3,74,24,78,67,14,120,75,59,40,72,96,37,66,35,116,72,106,118,Urge
77,3,80,37,79,68,28,130,89,65,41,72,98,39,71,31,114,70,109,125,Urge
85,2,81,47,79,68,39,135,92,63,37,73,97,40,71,29,110,68,110,136,Urge
85,0,79,53,79,70,41,137,88,58,31,76,96,45,71,29,107,70,108,149,Urge
83,1,75,58,78,72,35,139,80,51,24,79,95,51,72,28,104,76,103,156,Urge
79,3,71,62,78,75,24,139,69,44,18,81,93,56,72,24,99,81,92,152,Urge
72,6,67,64,77,76,13,140,59,37,13,80,91,58,71,17,89,84,78,140,Urge
64,8,65,65,75,75,1,139,49,28,10,75,87,57,68,8,78,80,65,122,Urge
55,9,65,66,73,72,-9,136,40,20,7,68,84,50,60,-1,67,71,58,103,Urge
46,8,68,65,73,70,-15,130,33,13,5,61,82,40,49,-9,58,60,59,85,Urge
37,5,73,61,75,71,-14,121,27,9,3,56,81,30,37,-16,52,51,68,68,Urge
29,0,80,54,78,73,-10,113,22,8,2,51,79,22,28,-22,46,47,81,51,Urge
22,-6,87,45,82,75,-4,106,17,11,0,47,76,19,23,-26,40,49,92,35,Urge
17,-9,92,35,85,78,6,99,10,17,-1,44,72,20,25,-29,34,57,99,25,Urge
14,-9,96,28,87,81,17,92,4,24,-1,42,68,22,32,-26,28,64,99,23,Urge
14,-8,98,22,86,82,27,87,-3,31,2,40,65,22,39,-18,24,65,91,33,Urge
18,-7,97,17,84,79,31,84,-7,36,6,40,63,20,42,-6,22,60,81,51,Urge
24,-4,94,14,79,73,30,82,-8,38,8,39,60,14,37,5,19,50,71,67,Urge
30,0,88,11,71,64,23,81,-7,33,4,36,56,4,25,7,12,40,64,72,Urge
31,4,79,4,61,54,14,79,-8,22,-5,30,50,-4,10,0,3,35,59,64,Urge
23,7,69,-9,52,45,6,78,-11,9,-17,23,44,-9,-5,-14,-6,37,56,50,Urge
9,8,61,-23,44,39,-1,78,-15,-2,-27,16,42,-11,-18,-30,-11,46,52,39,Urge
-10,7,57,-33,38,36,-6,79,-20,-10,-34,10,44,-12,-30,-45,-11,55,45,37,Urge
-29,4,57,-39,34,35,-9,81,-25,-14,-37,5,48,-15,-41,-57,-9,58,33,45,Urge
-43,0,59,-37,32,35,-13,83,-27,-14,-36,1,50,-19,-50,-65,-7,54,21,56,Urge
-53,-2,62,-28,33,34,-15,84,-27,-14,-33,-2,50,-24,-56,-71,-9,45,13,63,Urge
-57,-3,65,-16,37,34,-16,83,-26,-15,-29,-3,47,-26,-57,-74,-13,35,9,62,Urge
-57,-3,67,-7,42,34,-14,80,-27,-19,-25,0,45,-25,-51,-73,-17,27,10,57,Urge
-54,-1,69,-4,46,36,-11,76,-28,-23,-22,5,43,-24,-41,-67,-19,24,16,51,Urge
-49,1,71,-4,47,36,-10,75,-28,-25,-19,10,42,-24,-27,-57,-17,27,25,48,Urge
-41,1,71,-5,43,34,-10,78,-29,-25,-16,14,42,-26,-14,-45,-11,31,37,50,Urge
-31,0,69,-11,37,31,-13,81,-29,-24,-13,16,45,-29,-3,-32,-2,34,48,55,Urge
-19,-1,66,-18,31,28,-16,83,-26,-22,-10,19,50,-32,3,-20,7,33,53,59,Urge
-8,-1,62,-24,26,25,-19,82,-22,-19,-6,21,55,-32,5,-12,14,30,53,58,Urge
3,1,57,-26,23,21,-23,79,-15,-15,-3,24,62,-26,6,-5,20,28,52,53,Urge
10,5,51,-23,22,18,-26,76,-10,-9,-1,29,69,-15,8,4,26,27,52,50,Urge
17,10,47,-17,21,15,-29,71,-9,-5,-2,32,74,-1,10,13,33,28,52,48,Urge
24,13,44,-13,20,11,-31,67,-11,-2,-5,33,75,10,13,20,37,29,53,45,Urge
32,14,42,-14,16,7,-29,61,-16,-1,-10,29,70,16,13,24,40,28,53,41,Urge
39,13,40,-20,12,4,-24,52,-22,-3,-14,22,60,16,11,25,41,24,52,39,Urge
41,10,38,-29,7,2,-20,42,-28,-6,-16,13,47,9,6,24,40,18,46,34,Urge
40,8,35,-34,2,-1,-22,32,-31,-9,-17,5,33,-1,0,21,36,12,41,26,Urge
38,5,32,-30,-3,-4,-28,26,-28,-9,-15,-1,23,-8,-4,17,31,10,41,17,Urge
36,3,30,-20,-8,-6,-36,26,-24,-9,-13,-3,19,-11,-4,14,27,11,45,14,Urge
36,0,30,-12,-12,-9,-41,31,-22,-10,-14,-1,22,-10,-3,14,28,13,51,20,Urge
38,-4,33,-10,-15,-11,-43,39,-21,-14,-18,3,29,-5,0,15,34,15,56,33,Urge
41,-7,35,-14,-17,-12,-44,49,-22,-18,-23,10,39,2,6,19,46,18,59,54,Urge
41,-10,37,-17,-15,-13,-44,58,-22,-22,-30,16,47,8,15,26,60,21,63,79,Urge
41,-11,37,-15,-11,-13,-48,66,-22,-25,-37,20,52,14,26,33,73,24,65,99,Urge
40,-11,35,-9,-6,-13,-56,72,-21,-27,-42,22,53,18,38,38,81,26,68,107,Urge
42,-10,34,-1,0,-10,-61,76,-17,-27,-41,24,52,22,49,40,83,28,72,107,Urge
45,-8,35,5,7,-3,-56,77,-10,-23,-37,28,53,26,59,42,83,29,78,102,Urge
51,-4,37,8,13,8,-41,74,-2,-19,-31,34,56,29,65,43,82,30,85,95,Urge
59,0,41,9,15,18,-21,68,3,-16,-27,38,60,31,68,43,80,29,88,87,Urge
67,2,42,8,13,25,0,58,5,-16,-28,41,63,30,68,43,83,26,86,84,Urge
70,1,40,6,8,29,16,49,4,-18,-32,42,66,28,67,47,90,24,83,89,Urge
69,-2,39,5,2,29,22,46,1,-22,-39,41,66,27,67,52,100,22,78,98,Urge
66,-7,38,1,-3,27,15,48,-1,-26,-47,38,65,27,66,60,109,21,73,109,Urge
64,-13,38,-10,-4,24,3,52,-1,-29,-51,36,63,30,67,71,116,23,70,119,Urge
65,-19,39,-22,1,25,-7,58,5,-26,-49,36,65,37,71,84,123,29,75,125,Urge
71,-21,42,-29,8,26,-14,63,15,-18,-42,38,69,45,77,94,127,38,85,125,Urge
82,-21,45,-28,16,27,-17,64,26,-8,-33,38,73,50,82,97,127,48,91,119,Urge
95,-20,46,-20,22,26,-17,62,34,2,-25,37,77,54,84,94,128,56,90,111,Urge
102,-18,48,-6,28,27,-11,61,38,10,-20,37,81,58,84,87,130,62,85,105,Urge
102,-15,51,11,32,28,-5,64,38,16,-16,39,84,61,82,80,132,65,77,102,Urge
97,-12,55,22,33,30,-2,68,35,17,-16,40,86,60,78,76,131,63,71,104,Urge
91,-10,58,24,31,32,0,71,29,15,-18,42,87,55,73,76,125,58,69,109,Urge
85,-10,61,19,29,36,4,71,23,15,-17,46,88,50,69,81,119,51,71,118,Urge
81,-9,64,13,28,40,8,70,19,18,-13,52,88,44,68,88,112,45,79,129,Urge
82,-7,67,8,28,42,7,67,17,23,-9,56,84,40,71,92,106,41,85,137,Urge
87,-4,66,8,31,42,3,65,17,30,-4,59,79,37,75,92,102,38,86,140,Urge
92,0,65,12,36,42,2,65,18,37,1,62,72,37,79,87,98,35,82,134,Urge
97,5,63,18,42,42,2,66,20,44,5,63,65,39,84,79,93,32,79,121,Urge
99,9,61,23,45,40,1,67,23,47,7,62,58,43,89,69,86,30,81,103,Urge
100,11,59,25,45,39,3,66,26,48,7,60,55,47,93,60,78,31,87,85,Urge
99,12,58,22,42,38,8,63,28,47,4,57,53,51,95,52,70,34,90,72,Urge
99,11,58,19,37,35,13,57,31,44,-3,53,52,56,95,46,63,39,90,66,Urge
98,10,57,14,29,29,10,49,33,37,-14,45,48,56,91,40,56,40,83,66,Urge
94,6,51,8,20,20,-2,44,34,26,-28,35,43,50,82,35,50,37,69,69,Urge
88,-1,40,3,13,11,-20,42,32,12,-40,26,39,37,68,31,47,27,49,73,Urge
79,-8,27,3,11,5,-37,45,28,0,-47,20,38,21,53,26,49,14,30,76,Urge
67,-14,16,9,16,4,-48,53,22,-9,-46,20,42,8,41,22,57,5,17,78,Urge
55,-17,12,17,26,10,-48,62,16,-11,-37,26,52,1,37,19,69,2,16,80,Urge
46,-16,16,28,40,23,-33,70,13,-5,-24,38,66,3,41,19,85,3,21,86,Urge
43,-11,25,40,53,39,-10,75,13,3,-11,49,77,10,46,20,99,4,24,96,Urge
44,-5,37,48,59,51,12,75,13,10,-3,55,82,16,47,20,106,4,22,105,Urge
46,-2,46,49,59,57,28,70,13,12,-2,54,81,20,47,18,106,2,16,111,Urge
44,-3,50,43,54,58,37,66,14,13,-5,48,78,22,45,16,103,2,12,112,Urge
40,-5,54,37,48,56,44,66,13,14,-10,41,75,24,43,13,99,5,10,107,Urge
35,-6,59,31,44,54,51,72,14,16,-13,35,73,28,44,8,94,11,15,97,Urge
33,-5,66,28,40,50,56,80,18,20,-13,31,73,36,49,3,91,18,26,86,Urge
33,-2,71,27,38,47,59,90,25,23,-10,30,72,43,54,-1,88,23,39,76,Urge
37,2,73,26,36,43,59,99,33,25,-6,32,73,48,57,-4,88,24,45,68,Urge
44,4,72,21,33,39,54,106,39,23,-1,37,75,50,57,-7,87,24,44,64,Urge
52,3,69,11,31,36,44,110,43,21,3,43,77,50,57,-8,85,25,44,64,Urge
59,-1,65,2,28,34,30,112,48,18,6,47,77,48,57,-8,82,25,48,67,Urge
65,-6,62,-4,25,32,15,111,52,14,6,47,74,44,56,-10,78,23,53,71,Urge
70,-12,60,-7,21,29,-1,108,56,10,5,42,66,36,54,-16,73,18,58,72,Urge
69,-17,57,-8,17,24,-14,102,60,7,3,36,55,25,51,-25,65,9,59,67,Urge
61,-20,53,-5,15,19,-20,92,60,2,0,29,43,10,47,-37,55,-1,51,56,Urge
49,-22,49,1,14,15,-16,79,55,-3,-4,27,36,-6,41,-50,44,-9,35,42,Urge
35,-20,45,4,16,15,-3,66,43,-9,-8,30,36,-19,36,-59,35,-10,18,30,Urge
22,-15,44,5,19,19,13,56,27,-14,-11,35,41,-24,31,-64,29,-6,5,23,Urge
14,-8,46,3,20,23,27,51,9,-20,-14,38,46,-25,27,-63,26,-1,-1,23,Urge
12,-3,48,-1,17,24,33,48,-9,-28,-19,35,47,-23,22,-62,25,1,-2,28,Urge
11,-3,49,-10,7,17,28,45,-25,-41,-30,24,42,-23,15,-62,25,-3,-1,30,Urge
8,-9,48,-26,-7,3,13,43,-39,-55,-44,8,31,-23,9,-63,22,-13,0,31,Urge
1,-19,44,-48,-22,-15,-6,41,-51,-70,-60,-11,16,-25,5,-64,18,-24,0,32,Urge
-9,-29,40,-68,-35,-34,-27,40,-57,-82,-74,-29,1,-26,4,-64,15,-32,0,31,Urge
-17,-36,34,-78,-46,-49,-45,39,-58,-90,-84,-42,-9,-25,7,-61,13,-34,2,29,Urge
-22,-39,28,-77,-54,-58,-56,40,-56,-91,-88,-50,-14,-22,11,-56,12,-30,7,25,Urge
-22,-37,23,-70,-59,-61,-59,42,-52,-90,-88,-54,-14,-18,14,-51,12,-23,14,21,Urge
-19,-35,19,-58,-64,-62,-58,42,-50,-86,-88,-57,-13,-16,15,-48,11,-18,21,18,Urge
-16,-33,17,-48,-66,-60,-55,40,-51,-83,-87,-58,-13,-14,13,-48,9,-17,28,17,Urge
-16,-32,15,-43,-65,-55,-49,34,-53,-79,-83,-58,-14,-13,11,-47,8,-21,32,22,Urge
-17,-30,16,-43,-58,-48,-41,27,-55,-74,-76,-54,-16,-12,11,-44,9,-28,32,34,Urge
-17,-24,18,-46,-46,-39,-32,21,-52,-67,-65,-44,-15,-10,12,-37,15,-34,28,46,Urge
-15,-16,23,-46,-28,-27,-23,18,-43,-57,-49,-28,-9,-8,13,-30,24,-37,21,54,Urge
-8,-6,31,-40,-9,-14,-14,17,-33,-48,-32,-10,3,-8,13,-27,31,-37,12,51,Urge
-1,2,40,-29,6,-5,-8,14,-27,-44,-21,3,16,-12,7,-32,33,-37,0,37,Urge
3,7,47,-20,14,0,-4,10,-28,-46,-15,10,25,-19,-4,-41,28,-39,-12,18,Urge
0,7,49,-13,17,1,-4,8,-32,-48,-11,14,30,-25,-16,-47,21,-42,-21,1,Urge
-10,4,49,-5,17,2,-3,7,-34,-45,-7,18,32,-28,-24,-47,16,-45,-25,-6,Urge
-20,1,47,3,16,2,2,8,-33,-40,-5,22,31,-28,-27,-41,15,-49,-26,-3,Urge
-26,0,44,7,13,1,9,13,-31,-34,-5,26,30,-26,-27,-33,17,-52,-26,7,Urge
-26,-1,41,2,8,-2,12,21,-28,-29,-6,29,31,-23,-25,-26,20,-52,-27,19,Urge
-22,-1,39,-10,4,-3,12,30,-25,-25,-8,31,33,-18,-21,-26,23,-49,-29,27,Urge
-17,-1,39,-20,3,-2,12,39,-24,-25,-12,29,36,-14,-18,-32,23,-44,-34,29,Urge
-13,-3,39,-24,2,0,11,44,-27,-30,-17,23,37,-13,-20,-46,17,-42,-43,21,Urge
-14,-6,39,-25,2,2,7,45,-31,-37,-23,13,34,-13,-25,-61,6,-44,-54,4,Urge
-21,-10,39,-24,4,3,4,42,-32,-42,-28,4,29,-16,-30,-72,-3,-48,-63,-14,Urge
-33,-13,38,-20,6,4,4,36,-30,-44,-29,-3,24,-19,-32,-75,-11,-51,-64,-27,Urge
-45,-15,34,-17,6,3,3,27,-27,-45,-29,-9,18,-22,-30,-73,-17,-50,-59,-34,Urge
-52,-17,27,-19,3,0,-2,16,-24,-47,-29,-16,9,-24,-23,-67,-21,-46,-51,-36,Urge
-52,-20,16,-23,-2,-6,-11,7,-22,-51,-30,-22,-2,-25,-15,-61,-24,-41,-44,-31,Urge
-48,-24,7,-25,-9,-13,-22,0,-22,-57,-34,-25,-13,-27,-8,-57,-27,-38,-40,-25,Urge
-42,-30,1,-22,-17,-21,-32,-5,-27,-67,-43,-28,-23,-31,-4,-59,-32,-37,-38,-21,Urge
-37,-35,1,-22,-26,-28,-39,-9,-37,-81,-54,-30,-30,-38,-5,-65,-40,-38,-41,-24,Urge
-33,-38,6,-29,-34,-34,-41,-9,-49,-92,-65,-30,-33,-46,-8,-71,-48,-42,-43,-30,Urge
-33,-40,13,-39,-38,-36,-37,-6,-59,-97,-72,-26,-28,-53,-11,-74,-53,-45,-42,-35,Urge
-34,-38,21,-47,-39,-36,-29,0,-67,-95,-75,-22,-18,-59,-11,-73,-53,-49,-42,-41,Urge
-35,-34,26,-50,-40,-37,-25,4,-74,-90,-77,-20,-8,-65,-14,-73,-51,-59,-48,-48,Urge
-36,-30,26,-52,-43,-43,-27,7,-78,-85,-77,-23,-2,-73,-20,-75,-46,-78,-64,-54,Urge
-41,-29,22,-56,-49,-50,-32,6,-82,-82,-76,-27,1,-84,-30,-78,-38,-99,-82,-56,Urge
-50,-31,15,-60,-56,-55,-35,3,-85,-82,-71,-29,3,-92,-41,-78,-27,-117,-93,-52,Urge
-62,-36,8,-69,-63,-58,-32,0,-88,-83,-66,-28,6,-94,-49,-74,-15,-125,-93,-44,Urge
-71,-43,2,-83,-68,-59,-24,-1,-89,-84,-62,-25,12,-88,-51,-65,-2,-122,-81,-35,Urge
-76,-49,-2,-97,-69,-58,-14,1,-85,-81,-61,-20,19,-76,-48,-53,11,-109,-63,-27,Urge
-74,-52,-3,-102,-68,-56,-7,5,-75,-76,-62,-16,25,-62,-39,-42,23,-89,-42,-22,Urge
-66,-50,-2,-95,-68,-57,-9,10,-62,-70,-67,-17,27,-49,-29,-33,34,-69,-25,-19,Urge
-55,-47,-1,-79,-70,-61,-18,15,-48,-65,-75,-21,25,-40,-20,-28,42,-49,-15,-15,Urge
-43,-43,0,-60,-73,-65,-27,18,-37,-64,-82,-27,20,-34,-14,-24,48,-32,-10,-7,Urge
-33,-39,0,-42,-76,-67,-29,18,-33,-68,-88,-31,16,-30,-11,-19,51,-16,-13,6,Urge
-25,-35,1,-33,-80,-66,-24,14,-38,-76,-96,-34,13,-30,-14,-15,50,-7,-22,17,Urge
-21,-34,1,-36,-83,-66,-17,6,-48,-86,-105,-40,10,-32,-20,-15,45,-5,-36,22,Urge
-23,-33,-2,-49,-85,-69,-15,-6,-60,-96,-116,-49,3,-37,-29,-21,33,-12,-50,18,Urge
-30,-34,-9,-67,-87,-73,-24,-19,-68,-104,-126,-60,-9,-43,-37,-33,17,-23,-59,7,Urge
-43,-37,-19,-83,-89,-80,-45,-30,-72,-108,-133,-73,-25,-46,-43,-48,-1,-36,-59,-8,Urge
-58,-42,-32,-94,-88,-85,-66,-38,-71,-109,-134,-83,-41,-44,-43,-62,-16,-43,-50,-22,Urge
-71,-48,-43,-99,-86,-88,-80,-40,-69,-108,-129,-89,-50,-36,-38,-71,-25,-44,-37,-32,Urge
-79,-53,-50,-100,-81,-86,-79,-38,-66,-106,-120,-89,-51,-26,-32,-71,-25,-39,-31,-35,Urge
-79,-55,-51,-97,-74,-79,-67,-30,-62,-103,-108,-82,-43,-18,-25,-63,-13,-33,-31,-31,Urge
-73,-54,-46,-88,-66,-70,-51,-18,-57,-97,-96,-74,-30,-12,-17,-49,6,-28,-32,-21,Urge
-61,-51,-36,-75,-60,-64,-39,-4,-51,-89,-87,-66,-18,-9,-8,-33,27,-24,-31,-7,Urge
-46,-45,-26,-61,-58,-60,-35,8,-42,-81,-82,-59,-9,-8,-1,-16,46,-23,-26,10,Urge
-31,-40,-18,-48,-60,-59,-36,17,-34,-75,-82,-54,-4,-7,2,-4,61,-25,-20,25,Urge
-19,-38,-12,-41,-65,-60,-39,19,-31,-75,-85,-50,-3,-7,0,3,67,-28,-13,36,Urge
-13,-38,-9,-45,-72,-62,-42,14,-35,-79,-90,-47,-3,-9,-7,3,67,-31,-9,42,Urge
-13,-40,-10,-60,-78,-66,-46,7,-41,-85,-93,-44,-2,-12,-16,0,63,-33,-8,44,Urge
-18,-42,-13,-80,-82,-70,-52,-1,-46,-90,-93,-41,-2,-15,-24,-3,57,-34,-8,43,Urge
-23,-43,-18,-97,-85,-75,-61,-6,-51,-93,-91,-39,-2,-19,-28,-6,50,-30,-4,37,Urge
-27,-43,-23,-106,-87,-82,-68,-9,-55,-95,-88,-38,-4,-22,-29,-11,43,-23,0,26,Urge
-30,-42,-27,-104,-87,-87,-67,-8,-57,-95,-85,-35,-5,-24,-29,-13,38,-15,3,17,Urge
-34,-42,-30,-95,-84,-86,-58,-5,-57,-94,-83,-31,-5,-27,-29,-13,38,-9,3,13,Urge
-38,-42,-30,-84,-79,-80,-46,-2,-57,-92,-82,-27,-5,-29,-28,-8,39,-6,3,14,Urge
-41,-42,-28,-76,-70,-69,-33,1,-56,-87,-80,-24,-4,-26,-21,2,44,-3,3,24,Urge
-42,-40,-23,-73,-56,-55,-21,5,-50,-76,-75,-20,-1,-17,-9,18,52,0,7,43,Urge
-37,-35,-15,-70,-41,-40,-12,8,-41,-61,-68,-19,1,-3,6,35,60,4,15,65,Urge
-26,-26,-6,-63,-30,-29,-8,7,-30,-49,-64,-22,0,9,17,45,62,5,24,78,Urge
-13,-19,1,-51,-25,-25,-5,2,-22,-41,-61,-28,-4,16,22,46,56,5,30,83,Urge
-3,-17,6,-38,-24,-25,-4,-5,-17,-38,-60,-34,-9,16,20,39,46,2,30,79,Urge
1,-19,9,-27,-25,-26,-8,-12,-17,-39,-58,-38,-13,10,14,26,35,-3,24,69,Urge
0,-23,10,-24,-27,-28,-15,-18,-20,-45,-55,-40,-17,2,7,11,23,-9,18,55,Urge
-1,-28,9,-30,-28,-29,-24,-20,-26,-52,-49,-39,-19,-6,3,-4,15,-12,13,41,Urge
-3,-31,8,-41,-26,-30,-31,-19,-31,-58,-40,-34,-19,-8,4,-15,11,-10,10,31,Urge
-2,-33,7,-50,-22,-30,-35,-15,-33,-60,-31,-25,-17,-7,7,-22,11,-5,10,24,Urge
0,-34,5,-51,-17,-31,-39,-11,-31,-61,-24,-16,-17,-5,11,-26,13,1,11,19,Urge
1,-35,3,-46,-12,-35,-43,-8,-26,-60,-22,-9,-19,-4,14,-26,16,6,12,16,Urge
2,-35,-1,-35,-10,-39,-49,-4,-19,-58,-23,-6,-22,-5,14,-23,21,9,10,15,Urge
0,-34,-5,-23,-10,-44,-52,-2,-12,-57,-29,-7,-26,-8,8,-19,29,9,4,14,Urge
-2,-33,-6,-15,-12,-48,-47,-2,-10,-59,-37,-11,-27,-13,-1,-13,37,4,-2,15,Urge
-6,-33,-5,-15,-14,-50,-32,-2,-11,-64,-45,-15,-25,-19,-10,-8,43,-2,-6,18,Urge
-11,-35,-2,-21,-18,-50,-14,-1,-15,-69,-51,-18,-22,-22,-16,-4,43,-4,-6,22,Urge
-16,-39,3,-29,-23,-48,-2,1,-19,-71,-53,-19,-19,-23,-18,-3,39,-2,-7,23,Urge
-18,-43,7,-36,-27,-46,3,2,-24,-71,-52,-18,-18,-25,-17,-6,30,0,-10,19,Urge
-20,-46,8,-44,-33,-44,0,1,-28,-73,-50,-17,-19,-28,-17,-14,20,1,-15,11,Urge
-20,-47,4,-56,-40,-45,-8,-4,-30,-75,-48,-17,-21,-35,-21,-23,9,-4,-21,-1,Urge
-21,-46,-3,-68,-48,-48,-15,-13,-31,-80,-49,-19,-24,-46,-28,-34,1,-16,-27,-12,Urge
-25,-46,-10,-79,-56,-52,-17,-23,-33,-86,-53,-22,-27,-58,-37,-44,-5,-34,-34,-20,Urge
-31,-47,-15,-89,-62,-58,-20,-30,-36,-91,-60,-26,-30,-68,-45,-52,-11,-51,-39,-25,Urge
-38,-48,-18,-93,-66,-65,-28,-34,-39,-93,-68,-33,-34,-73,-51,-59,-16,-61,-42,-28,Urge
-43,-48,-18,-89,-67,-73,-40,-35,-39,-91,-76,-42,-39,-74,-52,-64,-20,-67,-41,-33,Urge
-45,-46,-18,-79,-66,-79,-50,-36,-39,-86,-85,-51,-45,-70,-52,-70,-23,-70,-40,-39,Urge
-45,-42,-17,-69,-64,-83,-54,-36,-38,-82,-94,-58,-50,-66,-50,-76,-25,-71,-40,-45,Urge
-44,-35,-15,-64,-63,-84,-48,-36,-35,-78,-101,-63,-55,-62,-50,-80,-26,-73,-42,-49,Urge
-44,-28,-11,-62,-63,-84,-35,-34,-31,-76,-107,-65,-58,-60,-51,-82,-26,-75,-45,-50,Urge
-46,-24,-7,-64,-66,-83,-23,-30,-27,-77,-113,-67,-62,-59,-52,-85,-26,-77,-50,-52,Urge
-49,-23,-3,-65,-72,-86,-19,-25,-26,-80,-120,-70,-68,-59,-53,-89,-24,-78,-54,-54,Urge
-52,-26,-2,-67,-81,-90,-24,-22,-31,-85,-127,-73,-73,-60,-54,-94,-20,-77,-57,-57,Urge
-55,-30,-4,-70,-88,-94,-32,-21,-38,-89,-132,-75,-75,-61,-55,-97,-15,-77,-59,-56,Urge
-56,-34,-8,-75,-91,-95,-35,-22,-45,-90,-133,-76,-72,-60,-55,-95,-10,-76,-57,-51,Urge
-57,-34,-12,-78,-89,-93,-34,-22,-50,-87,-130,-74,-65,-55,-54,-89,-6,-75,-53,-42,Urge
-57,-30,-13,-77,-82,-88,-31,-22,-48,-82,-122,-72,-55,-49,-54,-80,-4,-72,-52,-33,Urge
-54,-23,-11,-70,-74,-82,-28,-22,-42,-75,-113,-71,-46,-43,-55,-71,-6,-70,-56,-28,Urge
-51,-16,-10,-58,-66,-80,-31,-26,-32,-69,-103,-72,-41,-40,-56,-65,-9,-69,-65,-30,Urge
-49,-12,-10,-44,-61,-82,-43,-33,-22,-64,-95,-74,-41,-40,-56,-65,-14,-69,-71,-39,Urge
-49,-11,-12,-34,-58,-86,-62,-41,-15,-60,-90,-77,-45,-43,-53,-69,-21,-67,-72,-50,Urge
-50,-12,-15,-30,-57,-89,-80,-49,-15,-57,-87,-77,-48,-46,-50,-74,-30,-64,-66,-61,Urge
-51,-14,-17,-34,-54,-89,-88,-52,-20,-55,-85,-74,-47,-45,-45,-79,-38,-58,-50,-67,Urge
-52,-17,-17,-41,-47,-84,-82,-49,-25,-53,-81,-65,-41,-39,-39,-80,-41,-50,-28,-66,Urge
-51,-18,-15,-46,-37,-73,-64,-39,-30,-52,-75,-53,-29,-28,-33,-78,-37,-40,-8,-56,Urge
-46,-16,-11,-47,-23,-59,-36,-25,-33,-52,-68,-38,-15,-15,-28,-74,-26,-33,2,-40,Urge
-39,-11,-6,-43,-11,-43,-5,-11,-33,-53,-61,-23,-4,-4,-23,-70,-11,-26,2,-24,Urge
-33,-3,1,-38,-1,-30,18,0,-30,-53,-52,-13,3,6,-18,-66,6,-17,1,-9,Urge
-29,7,8,-35,4,-19,31,7,-26,-52,-45,-7,4,16,-13,-62,21,-6,2,2,Urge
-26,16,16,-32,7,-12,34,9,-19,-49,-39,-5,3,25,-7,-58,33,4,5,8,Urge
-22,19,25,-24,9,-7,34,6,-12,-44,-33,-4,4,32,-3,-53,43,11,5,10,Urge
-19,17,32,-14,10,-3,34,2,-4,-37,-27,0,7,37,-1,-46,52,14,2,13,Urge
-15,12,37,-4,11,-1,32,1,6,-29,-21,4,13,40,2,-40,61,15,-4,17,Urge
-11,7,38,4,13,1,28,4,16,-21,-16,9,19,41,5,-36,67,17,-11,20,Urge
-7,5,37,9,14,1,21,7,23,-17,-12,11,22,40,7,-36,67,17,-18,17,Urge
-6,7,35,9,12,1,14,8,26,-17,-11,9,21,37,4,-41,62,17,-20,8,Urge
-6,11,32,4,7,0,9,5,25,-21,-13,2,16,34,-1,-48,52,14,-16,-4,Urge
-6,13,28,-4,0,-5,3,2,23,-28,-17,-6,8,30,-7,-55,41,9,-11,-15,Urge
-7,13,23,-13,-8,-13,-4,-1,18,-37,-24,-14,-1,24,-15,-61,31,2,-10,-22,Urge
-7,13,17,-23,-15,-23,-11,-2,10,-45,-33,-20,-9,17,-24,-65,25,-5,-15,-21,Urge
-8,13,10,-35,-19,-33,-16,-1,2,-52,-42,-24,-14,10,-31,-67,24,-7,-21,-11,Urge
-11,14,5,-44,-20,-39,-18,2,-5,-54,-47,-24,-14,5,-34,-66,29,-4,-25,4,Urge
-14,15,1,-46,-17,-40,-14,7,-9,-52,-47,-20,-6,1,-33,-62,37,2,-26,20,Urge
-16,16,1,-40,-11,-35,-4,14,-10,-46,-42,-12,6,0,-31,-55,45,7,-21,31,Urge
-16,15,4,-27,-5,-26,7,21,-7,-37,-32,-2,19,2,-25,-46,52,11,-10,39,Urge
-14,14,9,-16,2,-16,14,31,1,-24,-20,9,29,7,-14,-35,58,16,6,43,Urge
-8,13,15,-9,9,-6,15,42,15,-7,-7,20,37,13,1,-25,62,23,21,45,Urge
0,17,20,-5,18,3,13,50,30,10,6,30,44,19,16,-19,64,32,31,46,Urge
10,23,25,0,26,11,11,54,44,23,17,38,50,23,29,-15,64,40,35,48,Urge
22,29,28,8,34,17,15,50,55,32,27,44,55,25,39,-13,64,45,34,50,Urge
33,33,27,17,38,21,21,43,61,36,36,45,59,26,46,-12,61,47,30,49,Urge
44,32,25,27,38,23,25,34,62,37,42,41,60,28,51,-13,56,48,29,46,Urge
52,31,21,34,36,23,23,26,60,36,43,33,57,31,55,-15,52,49,30,42,Urge
56,30,20,36,34,22,17,20,56,35,40,23,52,35,56,-17,52,51,32,38,Urge
58,32,22,32,34,20,9,17,50,31,32,14,48,37,52,-19,57,52,29,36,Urge
57,37,26,24,34,16,-1,17,41,23,21,6,44,33,44,-21,64,50,20,33,Urge
53,40,30,12,32,9,-12,17,28,9,6,-2,38,22,30,-24,68,42,4,30,Urge
45,40,31,-4,26,-1,-23,17,14,-10,-12,-13,30,6,13,-29,69,30,-14,24,Urge
33,34,29,-25,17,-9,-30,16,2,-28,-28,-25,22,-10,-2,-32,67,17,-28,18,Urge
19,23,23,-48,6,-16,-31,16,-4,-40,-40,-36,14,-21,-11,-33,64,10,-31,15,Urge
7,9,16,-65,-3,-19,-27,18,-3,-44,-45,-42,8,-23,-13,-29,62,9,-24,18,Urge
0,-2,11,-69,-8,-19,-14,22,5,-40,-42,-40,8,-16,-8,-21,64,16,-9,26,Urge
-1,-9,9,-60,-7,-16,7,28,15,-31,-35,-30,14,-2,1,-11,68,27,10,33,Urge
4,-11,12,-41,-3,-13,28,35,25,-21,-26,-16,23,14,11,-5,68,39,28,33,Urge
12,-9,18,-16,1,-12,40,40,33,-12,-19,-4,30,26,21,-6,63,51,42,26,Urge
20,-5,24,9,4,-12,39,42,38,-6,-17,4,35,32,27,-15,54,61,50,14,Urge
26,0,29,27,5,-12,32,43,39,-3,-18,8,39,32,31,-28,46,69,52,4,Urge
30,5,32,35,3,-13,23,44,36,-6,-22,7,40,28,31,-40,40,72,50,1,Urge
32,10,34,36,-1,-16,16,42,30,-14,-29,3,38,20,28,-50,37,70,44,4,Urge
33,14,33,29,-9,-19,14,37,20,-27,-38,-2,34,12,22,-57,36,64,33,12,Urge
31,17,30,12,-19,-24,20,31,8,-41,-49,-9,29,4,15,-61,36,56,22,22,Urge
26,16,26,-12,-29,-30,28,27,-4,-52,-60,-16,22,-2,8,-62,33,52,14,28,Urge
19,11,20,-35,-37,-37,29,25,-12,-56,-68,-23,16,-4,5,-63,26,53,12,29,Urge
10,5,14,-51,-40,-42,25,26,-14,-52,-70,-27,13,-2,7,-63,20,60,15,27,Urge
2,-2,9,-54,-37,-44,17,28,-9,-43,-66,-27,13,3,15,-65,16,70,21,23,Urge
-2,-6,5,-43,-30,-43,6,30,1,-33,-58,-25,13,7,23,-69,16,79,22,20,Urge
-2,-8,4,-23,-23,-43,-8,28,10,-27,-49,-22,13,7,27,-75,18,82,13,20,Urge
-1,-6,3,-6,-20,-45,-21,20,14,-28,-43,-20,9,-1,25,-82,24,76,-6,24,Urge
-2,-4,3,-1,-21,-50,-31,10,13,-36,-43,-19,4,-13,16,-86,32,64,-27,34,Urge
-5,-3,3,-8,-27,-56,-37,1,6,-47,-47,-19,-1,-26,7,-85,41,51,-40,47,Urge
-9,-3,2,-21,-32,-61,-37,-3,-1,-56,-53,-18,-3,-32,4,-76,49,42,-36,60,Urge
-13,-2,2,-33,-35,-63,-31,-3,-6,-60,-58,-16,-1,-29,6,-62,56,37,-14,68,Urge
-12,-1,0,-40,-36,-61,-20,-2,-7,-59,-63,-14,2,-18,11,-49,61,35,13,67,Urge
-6,1,-4,-41,-37,-60,-10,-2,-6,-59,-69,-17,3,-7,13,-43,61,32,32,59,Urge
1,2,-9,-45,-40,-60,-4,-2,-8,-64,-77,-24,1,-1,9,-45,58,29,31,47,Urge
4,1,-13,-60,-45,-62,0,-4,-13,-71,-84,-32,-1,-2,-1,-51,54,28,16,34,Urge
-1,-1,-14,-84,-50,-63,6,-4,-19,-76,-88,-39,-3,-9,-11,-57,54,31,-3,24,Urge
-9,-3,-11,-106,-54,-62,11,-1,-23,-78,-89,-41,-5,-17,-15,-61,56,39,-15,18,Urge
-17,-5,-5,-115,-57,-60,13,4,-23,-76,-87,-39,-6,-22,-13,-60,60,49,-12,16,Urge
-24,-6,2,-109,-58,-58,9,7,-20,-70,-85,-35,-7,-23,-5,-57,61,58,5,17,Urge
-26,-5,5,-90,-59,-61,-5,5,-15,-66,-86,-33,-11,-21,1,-54,57,63,25,16,Urge
-24,-4,3,-66,-62,-68,-27,-1,-14,-65,-91,-36,-17,-19,1,-57,47,63,33,13,Urge
-22,-3,-3,-49,-65,-76,-50,-10,-18,-68,-98,-44,-24,-20,-7,-66,34,57,23,8,Urge
-25,-2,-10,-47,-67,-81,-65,-19,-27,-73,-105,-52,-31,-25,-20,-77,23,46,-1,2,Urge
-32,-1,-14,-57,-67,-83,-70,-26,-38,-76,-107,-58,-35,-34,-37,-87,14,34,-29,-5,Urge
-42,-3,-15,-72,-66,-80,-67,-31,-49,-78,-104,-60,-39,-44,-53,-95,7,21,-49,-12,Urge
-53,-6,-15,-86,-64,-76,-58,-33,-59,-80,-98,-58,-43,-52,-65,-99,2,10,-53,-16,Urge
-63,-11,-14,-98,-63,-72,-51,-32,-66,-83,-90,-53,-47,-58,-72,-99,-4,3,-40,-17,Urge
-68,-16,-12,-107,-62,-71,-50,-32,-71,-86,-85,-49,-50,-63,-77,-99,-10,0,-21,-19,Urge
-69,-19,-11,-112,-62,-70,-51,-35,-73,-90,-81,-48,-53,-67,-81,-101,-19,-1,-6,-22,Urge
-67,-19,-13,-118,-60,-69,-52,-39,-73,-93,-80,-50,-57,-72,-86,-105,-27,-2,-3,-27,Urge
-65,-15,-15,-121,-57,-67,-50,-42,-72,-92,-81,-55,-58,-78,-90,-110,-32,-5,-13,-33,Urge
-63,-9,-17,-119,-52,-64,-47,-45,-69,-90,-83,-59,-58,-85,-93,-113,-33,-9,-28,-38,Urge
-61,-1,-20,-111,-49,-62,-47,-48,-65,-86,-84,-62,-56,-90,-94,-110,-30,-13,-39,-41,Urge
-60,7,-23,-97,-47,-61,-48,-48,-60,-82,-83,-60,-52,-90,-90,-101,-23,-12,-42,-40,Urge
-58,15,-23,-77,-44,-60,-50,-45,-53,-76,-79,-55,-46,-85,-81,-86,-12,-6,-31,-37,Urge
-54,22,-17,-54,-42,-58,-50,-41,-47,-69,-73,-47,-38,-77,-69,-67,-1,5,-12,-32,Urge
-47,25,-9,-35,-39,-56,-46,-39,-40,-61,-68,-37,-31,-67,-58,-48,9,15,8,-24,Urge
-39,24,-1,-24,-36,-52,-36,-37,-33,-52,-65,-28,-26,-58,-48,-31,17,24,21,-13,Urge
-30,18,5,-24,-34,-48,-22,-34,-24,-41,-63,-21,-23,-49,-41,-19,22,32,26,-2,Urge
-20,10,9,-33,-34,-45,-9,-30,-16,-30,-63,-15,-20,-44,-38,-12,26,36,21,8,Urge
-11,1,10,-46,-38,-44,-2,-26,-10,-21,-65,-11,-19,-43,-43,-9,27,37,10,16,Urge
-3,-6,9,-55,-42,-44,0,-23,-8,-13,-66,-10,-21,-47,-52,-11,24,33,-2,17,Urge
1,-9,8,-59,-48,-45,-2,-23,-10,-9,-65,-14,-27,-52,-62,-18,13,27,-9,9,Urge
1,-10,5,-61,-53,-47,-9,-27,-16,-9,-66,-21,-36,-58,-71,-29,-3,20,-12,-6,Urge
-3,-9,0,-62,-58,-51,-18,-33,-23,-14,-68,-32,-46,-64,-78,-43,-23,13,-13,-25,Urge
-11,-9,-7,-65,-63,-55,-30,-42,-28,-23,-71,-44,-58,-70,-83,-59,-43,4,-19,-44,Urge
-21,-9,-15,-69,-67,-61,-45,-52,-32,-36,-77,-56,-69,-77,-88,-77,-60,-6,-34,-61,Urge
-33,-10,-22,-75,-70,-67,-60,-61,-35,-51,-84,-67,-77,-85,-96,-95,-72,-17,-56,-76,Urge
-47,-11,-27,-78,-70,-73,-71,-68,-38,-65,-91,-74,-81,-96,-109,-111,-77,-28,-80,-89,Urge
-62,-11,-28,-73,-65,-75,-75,-72,-44,-76,-96,-76,-81,-105,-123,-123,-79,-37,-98,-99,Urge
-77,-10,-25,-64,-57,-75,-74,-73,-53,-85,-98,-76,-79,-111,-137,-131,-78,-41,-107,-106,Urge
-92,-7,-22,-59,-49,-77,-72,-74,-63,-92,-100,-78,-78,-112,-147,-134,-79,-40,-107,-109,Urge
-104,-5,-22,-61,-45,-79,-70,-75,-71,-98,-102,-81,-78,-111,-153,-134,-80,-35,-98,-107,Urge
-115,-5,-24,-65,-43,-81,-68,-74,-76,-101,-104,-83,-78,-108,-154,-130,-79,-31,-86,-100,Urge
-123,-8,-26,-68,-44,-79,-63,-71,-75,-99,-101,-82,-75,-102,-148,-120,-73,-26,-72,-86,Urge
-126,-11,-24,-68,-44,-72,-55,-64,-68,-91,-94,-75,-65,-93,-134,-104,-59,-17,-57,-67,Urge
-122,-14,-19,-64,-42,-61,-45,-50,-54,-75,-82,-61,-50,-78,-115,-81,-36,-4,-40,-43,Urge
-111,-12,-11,-54,-36,-46,-35,-30,-32,-52,-64,-40,-29,-59,-91,-55,-8,13,-21,-19,Urge
-91,-6,0,-38,-26,-31,-27,-8,-6,-26,-45,-19,-9,-40,-66,-30,17,28,-6,1,Urge
-65,4,10,-20,-17,-22,-24,10,17,-5,-31,-5,5,-26,-44,-13,33,37,4,14,Urge
-38,13,14,-7,-10,-19,-29,19,32,7,-25,-1,7,-20,-28,-7,37,37,5,16,Urge
-16,18,12,2,-7,-22,-34,19,37,8,-25,-6,0,-22,-21,-13,28,31,-4,8,Urge
-3,18,6,7,-6,-26,-34,12,34,2,-29,-15,-10,-30,-23,-26,13,22,-19,-6,Urge
1,12,2,5,-7,-30,-30,2,22,-10,-36,-25,-19,-40,-32,-39,-3,13,-34,-21,Urge
-3,3,-1,-5,-10,-33,-24,-6,5,-26,-43,-31,-25,-52,-47,-48,-17,5,-45,-29,Urge
-13,-6,0,-20,-14,-35,-17,-10,-12,-42,-49,-33,-26,-63,-64,-53,-25,-2,-51,-29,Urge
-24,-12,6,-35,-17,-35,-9,-10,-26,-58,-54,-31,-22,-74,-81,-54,-29,-8,-52,-23,Urge
-35,-14,15,-44,-21,-35,-3,-8,-39,-73,-57,-28,-17,-81,-95,-56,-31,-13,-51,-15,Urge
-45,-14,23,-49,-25,-35,-2,-7,-50,-87,-59,-26,-14,-86,-105,-60,-34,-16,-50,-11,Urge
-53,-11,26,-55,-29,-36,-4,-9,-59,-100,-60,-27,-15,-87,-112,-69,-38,-16,-49,-14,Urge
-60,-6,25,-63,-31,-37,-8,-15,-64,-107,-60,-29,-17,-86,-116,-80,-43,-15,-52,-24,Urge
-65,-1,21,-66,-32,-38,-15,-24,-64,-107,-59,-33,-21,-84,-117,-91,-48,-14,-57,-39,Urge
-68,5,15,-63,-31,-40,-24,-33,-60,-102,-58,-37,-26,-83,-117,-100,-52,-15,-64,-54,Urge
-71,11,10,-55,-29,-42,-32,-41,-54,-95,-59,-41,-29,-85,-116,-104,-53,-19,-71,-65,Urge
-75,16,8,-45,-27,-44,-40,-45,-48,-88,-62,-44,-31,-87,-114,-104,-50,-22,-76,-70,Urge
-79,20,9,-35,-26,-44,-44,-46,-44,-84,-66,-46,-31,-88,-111,-99,-45,-22,-76,-69,Urge
-83,22,10,-30,-25,-42,-43,-44,-43,-83,-72,-47,-29,-87,-108,-89,-40,-20,-69,-61,Urge
-86,20,11,-33,-25,-37,-37,-40,-46,-83,-77,-49,-27,-81,-103,-79,-36,-16,-58,-49,Urge
-87,16,10,-40,-25,-33,-26,-36,-50,-82,-80,-50,-25,-72,-95,-69,-33,-10,-45,-35,Urge
-86,10,8,-49,-27,-32,-13,-33,-55,-80,-81,-52,-22,-60,-83,-61,-30,-5,-33,-22,Urge
-82,5,5,-56,-28,-33,-4,-32,-59,-76,-80,-54,-21,-49,-73,-59,-29,-3,-26,-18,Urge
-77,0,4,-59,-30,-38,-1,-32,-63,-74,-78,-56,-21,-41,-68,-63,-31,-6,-27,-22,Urge
-72,-3,3,-60,-33,-44,-6,-36,-68,-76,-76,-57,-24,-41,-70,-73,-35,-13,-37,-32,Urge
-69,-5,2,-62,-37,-48,-15,-42,-73,-82,-76,-58,-29,-46,-78,-86,-41,-23,-56,-43,Urge
-69,-6,1,-62,-40,-49,-26,-51,-74,-88,-76,-58,-35,-57,-88,-98,-49,-34,-78,-52,Urge
-72,-6,-1,-58,-42,-49,-35,-58,-72,-92,-76,-58,-41,-70,-98,-106,-58,-45,-100,-59,Urge
-76,-5,-4,-51,-43,-49,-40,-63,-70,-96,-77,-55,-45,-84,-105,-108,-65,-55,-116,-65,Urge
-81,-4,-7,-45,-44,-50,-42,-65,-66,-97,-77,-52,-44,-95,-109,-105,-69,-62,-124,-70,Urge
-85,-3,-9,-43,-43,-50,-39,-61,-61,-96,-76,-47,-37,-101,-109,-98,-69,-63,-121,-73,Urge
-88,-1,-8,-39,-39,-47,-32,-55,-56,-91,-72,-41,-26,-99,-104,-90,-66,-56,-108,-75,Urge
-85,2,-4,-33,-32,-42,-22,-47,-52,-84,-66,-34,-13,-88,-96,-82,-59,-41,-91,-75,Urge
-78,6,2,-27,-23,-35,-11,-39,-51,-76,-58,-27,-1,-70,-85,-74,-49,-22,-72,-71,Urge
-68,8,8,-25,-14,-27,-1,-30,-52,-68,-49,-21,8,-52,-74,-65,-38,-4,-54,-64,Urge
-57,10,13,-26,-8,-22,3,-24,-52,-62,-42,-18,11,-39,-66,-55,-28,6,-41,-58,Urge
-45,9,15,-29,-6,-22,-2,-20,-52,-59,-38,-17,11,-34,-62,-48,-21,7,-36,-54,Urge
-36,7,13,-36,-8,-26,-12,-17,-50,-58,-39,-18,9,-38,-61,-44,-16,-4,-39,-53,Urge
-34,5,8,-40,-12,-32,-24,-14,-45,-58,-43,-22,6,-46,-61,-45,-12,-20,-46,-52,Urge
-36,6,4,-35,-16,-37,-35,-13,-40,-60,-50,-27,3,-54,-61,-50,-12,-37,-56,-55,Urge
-40,10,0,-23,-20,-42,-40,-13,-36,-64,-59,-33,-1,-59,-60,-57,-14,-51,-64,-60,Urge
-45,16,-2,-14,-25,-43,-37,-13,-34,-69,-67,-38,-4,-61,-59,-64,-19,-58,-68,-65,Urge
-49,20,-3,-12,-28,-39,-26,-14,-32,-70,-70,-40,-7,-60,-59,-67,-24,-55,-64,-66,Urge
-51,23,-4,-15,-30,-33,-13,-17,-27,-67,-66,-40,-9,-56,-57,-68,-28,-44,-57,-65,Urge
-49,22,-4,-20,-31,-27,-4,-22,-20,-58,-57,-40,-12,-50,-52,-68,-33,-30,-51,-61,Urge
-45,17,-6,-23,-30,-23,-2,-27,-10,-46,-45,-40,-14,-43,-47,-69,-36,-18,-50,-53,Urge
-43,10,-7,-22,-27,-22,-5,-29,-2,-35,-32,-41,-15,-36,-43,-72,-37,-7,-54,-45,Urge
-42,3,-8,-15,-24,-25,-17,-28,3,-28,-21,-45,-17,-31,-45,-77,-37,-1,-63,-40,Urge
-42,-2,-8,-9,-22,-32,-35,-26,2,-30,-15,-50,-18,-31,-51,-83,-37,0,-72,-39,Urge
-44,-4,-9,-10,-22,-38,-50,-22,-2,-35,-11,-53,-18,-34,-59,-85,-36,-1,-75,-42,Urge
-48,-3,-11,-15,-21,-41,-57,-18,-8,-40,-8,-49,-13,-40,-65,-83,-32,-4,-67,-46,Urge
-50,1,-11,-18,-18,-38,-51,-15,-16,-44,-5,-40,-4,-46,-65,-78,-25,-8,-51,-48,Urge
-51,6,-10,-16,-13,-29,-34,-12,-24,-44,-2,-29,9,-48,-58,-71,-17,-12,-32,-47,Urge
-50,11,-6,-12,-6,-18,-14,-11,-30,-40,0,-18,21,-46,-47,-64,-11,-14,-16,-43,Urge
-46,15,-1,-4,1,-8,0,-10,-33,-36,-3,-13,29,-41,-37,-62,-10,-13,-11,-41,Urge
-42,18,5,3,6,-6,0,-12,-33,-35,-9,-17,30,-38,-32,-67,-16,-10,-20,-44,Urge
-38,20,9,2,8,-10,-12,-17,-33,-37,-19,-27,22,-39,-32,-76,-28,-8,-38,-54,Urge
-40,24,11,-7,7,-19,-30,-26,-30,-38,-28,-39,10,-43,-34,-85,-43,-7,-52,-67,Urge
-46,27,10,-16,7,-27,-45,-34,-24,-35,-34,-47,-1,-48,-33,-88,-54,-8,-54,-75,Urge
-51,31,8,-19,7,-31,-50,-40,-15,-27,-36,-50,-6,-48,-25,-84,-60,-8,-40,-76,Urge
-52,35,7,-15,9,-27,-43,-41,-2,-15,-32,-47,-4,-41,-8,-73,-58,-4,-15,-70,Urge
-46,40,6,-1,13,-18,-29,-39,13,-2,-23,-39,3,-25,13,-59,-51,4,10,-59,Urge
-32,45,8,23,16,-7,-13,-36,27,8,-12,-29,14,-8,33,-45,-41,13,23,-47,Urge
-15,50,10,46,19,3,2,-35,37,13,-2,-19,26,4,46,-36,-31,19,21,-37,Urge
1,53,12,62,18,9,12,-38,40,10,6,-13,34,5,49,-31,-25,19,5,-30,Urge
11,53,11,66,15,8,11,-43,35,2,8,-11,37,-2,42,-29,-20,16,-18,-27,Urge
12,46,7,60,9,2,1,-47,25,-10,4,-12,38,-13,30,-28,-17,11,-35,-25,Urge
5,36,0,46,4,-6,-12,-46,14,-22,-5,-14,36,-22,17,-27,-15,10,-43,-26,Urge
-6,24,-8,30,2,-12,-23,-41,4,-33,-15,-17,33,-26,6,-27,-12,12,-42,-30,Urge
-20,14,-14,16,2,-14,-24,-34,-5,-43,-22,-17,30,-26,-2,-26,-9,14,-37,-34,Urge
-33,8,-15,5,3,-11,-17,-24,-14,-49,-27,-14,29,-25,-5,-23,-3,14,-29,-35,Urge
-42,6,-13,-3,4,-5,-6,-15,-21,-53,-29,-8,31,-24,-3,-19,1,9,-20,-32,Urge
-44,8,-7,-11,4,-1,5,-6,-27,-56,-30,-3,33,-24,1,-16,2,2,-15,-29,Urge
-40,11,-1,-18,3,1,9,2,-30,-58,-30,0,35,-26,5,-18,1,-5,-17,-30,Urge
-33,14,4,-25,1,0,7,5,-29,-58,-29,1,39,-28,8,-21,1,-8,-22,-34,Urge
-27,17,8,-26,1,0,4,4,-23,-55,-27,0,43,-30,9,-23,2,-6,-26,-38,Urge
-25,19,11,-22,2,0,2,1,-15,-49,-21,-1,47,-31,10,-24,3,-1,-30,-40,Urge
-25,21,15,-13,4,1,1,-3,-7,-42,-13,-4,49,-34,10,-21,5,1,-34,-40,Urge
-23,20,19,-6,8,1,-3,-7,-1,-34,-6,-6,48,-39,10,-16,4,-4,-36,-36,Urge
-18,19,22,-2,10,-2,-9,-9,1,-30,-1,-9,43,-45,10,-13,0,-16,-37,-34,Urge
-10,15,23,-1,10,-6,-12,-10,-2,-32,0,-12,32,-54,7,-15,-11,-32,-41,-36,Urge
-4,10,21,-4,9,-9,-10,-12,-7,-35,-2,-13,20,-63,3,-22,-23,-48,-46,-43,Urge
-3,5,17,-8,8,-8,-3,-17,-12,-38,-6,-14,9,-71,-2,-33,-31,-58,-51,-52,Urge
-8,3,13,-11,7,-5,3,-25,-15,-39,-9,-14,3,-75,-7,-42,-34,-61,-52,-60,Urge
-16,4,8,-13,7,-1,4,-33,-14,-37,-9,-13,2,-74,-11,-48,-31,-59,-50,-64,Urge
-26,7,4,-15,10,2,0,-37,-9,-31,-7,-11,7,-68,-10,-49,-23,-53,-45,-64,Urge
-32,11,0,-14,14,6,-7,-37,0,-25,-3,-9,16,-59,-8,-46,-12,-48,-40,-60,Urge
-33,14,-1,-9,15,7,-13,-35,7,-23,-2,-9,24,-53,-6,-44,-3,-49,-38,-58,Urge
-31,15,-2,-6,13,6,-12,-35,9,-25,-6,-12,29,-52,-4,-44,1,-52,-38,-56,Urge
-30,12,-2,-9,8,4,-3,-37,6,-31,-13,-15,29,-56,-3,-47,0,-57,-39,-56,Urge
-33,7,0,-18,3,3,9,-41,0,-38,-23,-18,26,-64,-3,-52,-6,-62,-41,-58,Urge
-36,3,4,-31,-3,0,14,-44,-7,-45,-32,-20,19,-73,-7,-59,-12,-64,-46,-65,Urge
-41,2,9,-43,-6,-5,9,-43,-11,-50,-37,-22,11,-80,-14,-68,-17,-63,-51,-74,Urge
-46,5,12,-49,-7,-8,-1,-40,-13,-53,-39,-22,4,-83,-22,-77,-22,-58,-55,-83,Urge
-51,10,12,-46,-5,-9,-10,-37,-12,-53,-38,-20,1,-84,-30,-83,-25,-54,-60,-89,Urge
-55,15,10,-35,-1,-7,-15,-33,-9,-50,-35,-19,1,-84,-35,-87,-25,-51,-65,-90,Urge
-58,18,7,-22,4,-5,-12,-33,-7,-44,-30,-18,3,-82,-38,-89,-24,-51,-69,-88,Urge
-61,19,4,-15,8,-2,-5,-36,-6,-37,-25,-14,7,-81,-38,-89,-21,-52,-73,-82,Urge
-64,16,2,-17,11,0,1,-40,-5,-28,-20,-9,11,-81,-38,-90,-18,-55,-78,-74,Urge
-66,11,1,-23,13,1,0,-42,0,-19,-15,-2,15,-81,-37,-90,-11,-60,-83,-67,Urge
-67,6,1,-27,14,1,-8,-41,7,-12,-11,5,17,-80,-37,-88,-3,-64,-85,-60,Urge
-65,3,0,-26,14,-2,-22,-37,14,-6,-8,11,16,-77,-35,-84,4,-68,-82,-56,Urge
-59,2,-3,-21,12,-7,-36,-33,22,-4,-7,12,14,-76,-32,-77,8,-73,-77,-55,Urge
-52,2,-7,-13,9,-12,-44,-31,28,-4,-7,10,11,-77,-31,-68,10,-77,-69,-58,Urge
-46,2,-12,-7,3,-17,-47,-32,31,-8,-9,3,8,-81,-31,-63,7,-81,-63,-68,Urge
-42,0,-16,-7,-4,-23,-47,-36,30,-14,-14,-8,4,-88,-35,-63,0,-83,-63,-82,Urge
-43,-2,-18,-15,-12,-29,-46,-44,22,-24,-24,-20,1,-96,-43,-66,-10,-87,-67,-96,Urge
-49,-4,-21,-29,-19,-35,-43,-53,10,-33,-38,-31,0,-104,-51,-71,-20,-93,-74,-103,Urge
-58,-3,-23,-47,-24,-39,-39,-58,-4,-40,-52,-39,1,-108,-54,-75,-27,-100,-76,-103,Urge
-65,-1,-26,-62,-27,-42,-36,-60,-16,-43,-61,-43,3,-105,-51,-75,-30,-104,-69,-94,Urge
-67,1,-28,-72,-28,-43,-31,-58,-23,-41,-65,-44,6,-97,-44,-73,-32,-104,-56,-81,Urge
-64,1,-30,-75,-28,-43,-25,-55,-25,-37,-63,-43,10,-89,-33,-71,-33,-97,-42,-70,Urge
-58,-2,-31,-71,-27,-41,-17,-50,-22,-31,-58,-40,16,-83,-22,-71,-35,-84,-30,-63,Urge
-52,-6,-28,-59,-26,-38,-9,-44,-15,-24,-53,-37,21,-78,-13,-72,-36,-68,-22,-60,Urge
-47,-9,-24,-42,-26,-37,-7,-37,-8,-20,-51,-34,26,-76,-9,-73,-35,-54,-18,-60,Urge
-42,-8,-19,-28,-28,-39,-12,-31,-7,-21,-53,-32,30,-75,-10,-73,-30,-46,-20,-58,Urge
-39,-5,-16,-22,-33,-44,-21,-25,-10,-24,-56,-30,33,-74,-12,-70,-22,-44,-24,-52,Urge
-37,-1,-15,-25,-38,-51,-31,-20,-14,-26,-57,-28,35,-73,-15,-65,-13,-48,-29,-44,Urge
-38,1,-16,-31,-43,-59,-39,-19,-16,-25,-55,-28,34,-71,-17,-61,-6,-56,-33,-38,Urge
-39,2,-20,-33,-46,-66,-46,-23,-15,-21,-52,-29,30,-71,-19,-58,-4,-63,-39,-34,Urge
-41,3,-25,-33,-48,-71,-51,-29,-13,-16,-48,-32,23,-72,-21,-57,-6,-69,-47,-32,Urge
-43,5,-30,-30,-49,-74,-53,-36,-12,-14,-48,-36,15,-75,-25,-57,-13,-74,-53,-33,Urge
-44,6,-33,-31,-50,-76,-54,-42,-15,-17,-52,-42,5,-78,-31,-58,-21,-78,-59,-35,Urge
-44,3,-35,-37,-52,-77,-54,-48,-22,-26,-61,-49,-2,-84,-38,-58,-26,-81,-63,-38,Urge
-44,-3,-36,-49,-54,-76,-51,-51,-32,-38,-73,-55,-6,-90,-46,-57,-28,-83,-65,-41,Urge
-46,-13,-37,-61,-54,-74,-47,-52,-40,-48,-83,-59,-6,-94,-50,-55,-26,-84,-62,-43,Urge
-47,-21,-39,-64,-52,-70,-43,-53,-42,-53,-89,-60,-4,-97,-50,-53,-22,-85,-54,-47,Urge
-48,-22,-39,-57,-49,-66,-43,-53,-39,-52,-89,-58,1,-99,-46,-50,-17,-85,-44,-51,Urge
-47,-16,-38,-44,-46,-63,-49,-51,-35,-48,-84,-54,8,-100,-41,-46,-13,-86,-38,-56,Urge
-45,-4,-35,-33,-45,-64,-60,-46,-32,-43,-79,-50,14,-100,-34,-43,-10,-88,-36,-59,Urge
-42,6,-32,-29,-47,-67,-73,-41,-33,-39,-76,-46,19,-98,-26,-40,-8,-90,-35,-62,Urge
-41,12,-28,-35,-52,-72,-80,-35,-37,-37,-75,-43,24,-95,-16,-36,-4,-89,-33,-62,Urge
-40,13,-25,-44,-55,-75,-79,-31,-41,-34,-74,-37,31,-88,-5,-30,6,-82,-26,-57,Urge
-39,11,-24,-52,-54,-74,-71,-29,-42,-28,-71,-28,39,-79,6,-21,19,-71,-14,-45,Urge
-34,8,-23,-51,-50,-69,-55,-28,-40,-21,-64,-18,46,-72,13,-13,30,-61,-4,-31,Urge
-25,5,-22,-42,-44,-64,-36,-30,-38,-17,-58,-12,48,-73,10,-9,32,-55,-5,-22,Urge
-14,2,-21,-33,-40,-60,-22,-30,-38,-20,-54,-11,47,-82,1,-11,26,-56,-17,-19,Urge
-7,-2,-19,-28,-38,-58,-18,-28,-40,-30,-54,-13,42,-92,-10,-17,15,-61,-34,-24,Urge
-7,-8,-17,-28,-38,-58,-22,-23,-44,-42,-57,-17,38,-100,-16,-23,5,-66,-45,-31,Urge
-11,-12,-15,-32,-39,-58,-28,-17,-49,-55,-60,-18,34,-102,-15,-25,0,-68,-46,-37,Urge
-15,-13,-15,-41,-41,-57,-32,-16,-53,-66,-61,-15,32,-98,-7,-21,2,-69,-35,-38,Urge
-16,-8,-17,-51,-42,-57,-33,-22,-54,-73,-61,-12,30,-90,4,-13,7,-70,-16,-32,Urge
-12,-3,-22,-60,-44,-58,-36,-34,-53,-79,-62,-14,22,-85,10,-7,10,-76,-3,-24,Urge
-6,0,-31,-67,-50,-65,-44,-50,-57,-88,-68,-26,7,-87,6,-10,6,-88,-3,-19,Urge
-5,-2,-41,-76,-60,-75,-54,-68,-64,-103,-80,-45,-13,-94,-6,-22,-5,-101,-14,-20,Urge
-13,-7,-50,-89,-68,-86,-65,-82,-72,-118,-94,-66,-34,-99,-17,-40,-17,-112,-25,-27,Urge
-28,-11,-53,-100,-74,-95,-76,-90,-75,-127,-107,-83,-49,-101,-20,-58,-27,-115,-31,-39,Urge
-46,-12,-51,-101,-76,-101,-87,-90,-73,-127,-114,-93,-57,-98,-16,-73,-32,-109,-32,-54,Urge
-60,-10,-44,-95,-74,-101,-95,-87,-67,-119,-114,-97,-58,-92,-7,-83,-38,-97,-29,-70,Urge
-68,-6,-35,-84,-69,-99,-99,-83,-56,-105,-108,-96,-55,-88,-1,-87,-46,-82,-28,-83,Urge
-69,-2,-27,-71,-63,-95,-98,-80,-44,-92,-99,-91,-51,-88,-1,-88,-56,-71,-34,-89,Urge
-65,-1,-20,-58,-57,-88,-91,-77,-33,-82,-87,-84,-46,-90,-5,-84,-66,-64,-44,-87,Urge
-58,-1,-17,-49,-51,-78,-74,-74,-25,-76,-73,-71,-39,-91,-7,-76,-70,-59,-50,-76,Urge
-48,-2,-14,-44,-47,-66,-51,-71,-19,-72,-58,-56,-31,-90,-3,-65,-67,-55,-46,-60,Urge
-35,0,-12,-41,-46,-54,-31,-67,-15,-68,-46,-41,-20,-88,5,-53,-58,-53,-33,-45,Urge
-19,1,-11,-38,-49,-47,-21,-63,-14,-65,-42,-29,-9,-87,14,-43,-47,-50,-18,-37,Urge
-3,0,-12,-39,-56,-46,-19,-58,-17,-64,-46,-22,2,-88,16,-39,-38,-48,-7,-36,Urge
9,-2,-16,-45,-64,-49,-21,-55,-24,-69,-56,-20,11,-93,8,-40,-35,-49,-4,-39,Urge
12,-3,-20,-54,-71,-56,-22,-54,-32,-81,-71,-21,15,-100,-8,-47,-38,-53,-9,-46,Urge
6,-4,-24,-63,-76,-62,-22,-53,-39,-97,-86,-25,15,-107,-25,-57,-43,-60,-19,-55,Urge
-8,-6,-26,-70,-77,-66,-21,-52,-45,-114,-98,-32,10,-111,-37,-71,-48,-64,-26,-66,Urge
-26,-7,-27,-71,-78,-68,-25,-52,-51,-130,-107,-42,-1,-114,-43,-85,-54,-67,-27,-78,Urge
-46,-9,-27,-70,-82,-74,-41,-57,-61,-146,-118,-61,-18,-120,-48,-103,-65,-70,-29,-94,Urge
-67,-13,-30,-71,-93,-86,-66,-68,-76,-165,-134,-89,-43,-133,-58,-126,-82,-80,-38,-115,Urge
-88,-19,-35,-81,-108,-103,-93,-85,-96,-185,-154,-121,-71,-153,-76,-152,-104,-96,-55,-137,Urge
-115,-26,-41,-100,-123,-121,-112,-102,-116,-205,-174,-148,-95,-172,-97,-175,-124,-115,-76,-149,Urge
-144,-33,-46,-121,-132,-132,-116,-113,-131,-217,-184,-163,-108,-182,-111,-187,-134,-129,-96,-147,Urge
-171,-36,-47,-136,-132,-132,-103,-115,-136,-218,-183,-160,-107,-178,-111,-186,-133,-132,-104,-134,Urge
-187,-36,-44,-138,-119,-118,-75,-106,-126,-204,-168,-140,-90,-157,-92,-169,-121,-118,-95,-113,Urge
-186,-31,-36,-124,-98,-95,-43,-87,-102,-176,-142,-108,-61,-125,-57,-140,-100,-90,-70,-87,Urge
-167,-21,-25,-95,-71,-69,-16,-63,-72,-140,-113,-74,-26,-90,-17,-107,-76,-56,-38,-61,Urge
-131,-8,-13,-61,-47,-49,0,-42,-42,-106,-88,-47,3,-63,17,-79,-58,-29,-14,-39,Urge
-87,6,-3,-28,-31,-37,5,-31,-21,-82,-74,-33,21,-50,35,-59,-49,-16,-6,-24,Urge
-47,18,2,-4,-23,-35,-2,-30,-13,-72,-72,-32,25,-51,37,-50,-48,-17,-18,-16,Urge
-21,28,3,9,-25,-42,-21,-38,-19,-77,-78,-40,17,-62,25,-49,-54,-29,-41,-15,Urge
-11,33,-1,8,-35,-52,-43,-51,-35,-93,-89,-54,2,-78,5,-56,-64,-46,-68,-26,Urge
-17,34,-9,-1,-48,-61,-62,-62,-54,-113,-99,-65,-12,-92,-15,-65,-73,-62,-86,-47,Urge
-32,29,-16,-14,-57,-63,-71,-66,-70,-128,-102,-69,-19,-100,-29,-74,-76,-73,-88,-69,Urge
-51,21,-18,-28,-57,-57,-67,-61,-79,-133,-96,-63,-14,-102,-33,-79,-73,-79,-75,-86,Urge
-65,15,-13,-39,-49,-42,-52,-52,-80,-130,-81,-49,-1,-99,-29,-79,-68,-82,-54,-94,Urge
-70,12,-4,-44,-36,-26,-33,-45,-75,-122,-66,-33,12,-96,-22,-78,-69,-87,-35,-98,Urge
-66,13,4,-43,-27,-18,-23,-45,-69,-118,-59,-26,17,-100,-19,-82,-78,-94,-28,-103,Urge
-59,17,6,-42,-26,-22,-31,-54,-66,-122,-64,-31,9,-111,-26,-92,-97,-104,-35,-113,Urge
-56,21,-2,-45,-33,-38,-52,-69,-66,-134,-80,-49,-11,-127,-41,-108,-121,-114,-57,-128,Urge
-62,22,-18,-54,-47,-59,-77,-86,-68,-148,-101,-73,-37,-141,-60,-128,-144,-123,-86,-143,Urge
-77,17,-38,-67,-61,-77,-97,-100,-71,-160,-120,-96,-60,-148,-76,-146,-158,-125,-111,-152,Urge
-100,8,-56,-80,-71,-85,-104,-106,-72,-165,-130,-110,-71,-143,-81,-153,-160,-119,-120,-150,Urge
-121,-2,-64,-88,-73,-82,-96,-103,-69,-160,-128,-111,-66,-126,-72,-147,-149,-103,-111,-135,Urge
-134,-8,-60,-88,-68,-71,-77,-93,-63,-149,-116,-99,-47,-102,-52,-129,-127,-82,-90,-110,Urge
-131,-9,-47,-84,-58,-56,-54,-81,-56,-136,-101,-81,-21,-77,-30,-105,-99,-63,-67,-80,Urge
-115,-3,-29,-79,-47,-42,-33,-70,-47,-123,-85,-60,4,-59,-12,-80,-69,-49,-51,-51,Urge
-94,5,-12,-71,-35,-30,-17,-62,-39,-112,-69,-42,25,-51,-3,-59,-42,-43,-45,-25,Urge
-73,15,-1,-59,-25,-21,-6,-56,-33,-105,-56,-29,36,-51,-4,-47,-22,-43,-51,-10,Urge
-58,22,2,-45,-20,-16,-2,-55,-29,-101,-47,-23,38,-59,-12,-45,-14,-49,-61,-11,Urge
-53,24,-1,-29,-21,-17,-6,-56,-27,-98,-42,-24,31,-70,-20,-49,-19,-57,-66,-24,Urge
-56,20,-9,-12,-25,-21,-14,-56,-25,-94,-39,-27,22,-77,-23,-53,-30,-62,-59,-39,Urge
-62,13,-18,1,-30,-28,-28,-53,-20,-88,-35,-27,15,-76,-19,-50,-41,-61,-42,-49,Urge
-61,7,-25,4,-33,-36,-43,-48,-12,-79,-30,-22,11,-68,-10,-39,-46,-56,-19,-51,Urge
-50,3,-29,-2,-32,-40,-53,-41,1,-67,-22,-13,13,-54,0,-23,-44,-50,4,-44,Urge
-30,4,-28,-9,-27,-39,-53,-33,17,-54,-11,-2,19,-40,10,-8,-38,-42,21,-34,Urge
-6,8,-23,-11,-20,-35,-46,-27,32,-44,-3,7,25,-29,16,1,-33,-35,27,-29,Urge
16,13,-17,-7,-17,-32,-33,-28,42,-39,-1,8,28,-25,18,-2,-33,-31,22,-34,Urge
32,17,-12,-3,-18,-32,-19,-35,44,-42,-8,1,25,-26,17,-15,-38,-33,11,-48,Urge
38,19,-11,0,-25,-36,-8,-47,38,-51,-20,-13,18,-32,13,-36,-47,-39,-3,-63,Urge
33,18,-13,-3,-35,-43,-7,-61,25,-64,-35,-28,9,-40,5,-57,-56,-46,-18,-77,Urge
20,15,-19,-10,-46,-52,-16,-71,10,-75,-47,-42,-1,-48,-5,-74,-63,-52,-30,-86,Urge
2,10,-28,-22,-54,-58,-27,-75,-3,-82,-54,-50,-7,-53,-14,-83,-67,-56,-38,-86,Urge
-15,4,-37,-34,-54,-60,-33,-72,-11,-86,-53,-50,-6,-53,-20,-83,-67,-56,-41,-78,Urge
-27,-2,-43,-47,-49,-57,-32,-62,-13,-86,-47,-44,0,-51,-22,-75,-62,-52,-39,-64,Urge
-32,-6,-43,-55,-41,-51,-28,-50,-9,-84,-39,-36,8,-46,-19,-61,-55,-48,-34,-46,Urge
-29,-6,-37,-56,-33,-46,-24,-40,-4,-84,-34,-30,15,-41,-13,-46,-44,-46,-28,-27,Urge
-20,-3,-28,-50,-28,-43,-24,-33,-1,-88,-35,-30,19,-38,-8,-34,-32,-47,-26,-8,Urge
-9,2,-17,-41,-28,-44,-28,-31,-2,-93,-40,-34,21,-39,-6,-26,-20,-51,-31,5,Urge
-2,6,-8,-29,-33,-49,-39,-35,-8,-98,-48,-43,20,-43,-7,-22,-8,-58,-39,11,Urge
0,7,-4,-19,-40,-57,-52,-45,-18,-102,-57,-52,17,-50,-8,-19,3,-66,-48,13,Urge
-4,3,-4,-15,-46,-64,-59,-57,-29,-104,-63,-57,16,-54,-7,-13,16,-72,-51,14,Urge
-9,-4,-8,-18,-47,-66,-56,-66,-36,-101,-63,-54,20,-53,0,-1,30,-71,-43,18,Urge
-12,-9,-12,-24,-44,-63,-45,-70,-37,-96,-59,-43,27,-48,13,16,45,-62,-23,27,Urge
-10,-11,-15,-28,-39,-55,-33,-66,-31,-89,-53,-30,34,-39,31,31,56,-49,4,38,Urge
-2,-9,-16,-27,-34,-46,-25,-58,-21,-83,-46,-18,38,-30,47,41,63,-39,29,49,Urge
8,-4,-17,-24,-29,-38,-21,-51,-12,-78,-42,-11,39,-23,59,43,65,-36,46,53,Urge
15,1,-17,-24,-26,-33,-21,-48,-6,-76,-40,-10,35,-22,63,38,59,-43,52,47,Urge
16,4,-16,-28,-28,-34,-24,-54,-5,-78,-44,-17,24,-29,60,24,45,-58,45,28,Urge
10,2,-18,-34,-35,-43,-33,-68,-11,-84,-52,-31,6,-43,49,4,25,-78,27,1,Urge
-3,-5,-23,-44,-47,-60,-49,-84,-22,-93,-61,-48,-15,-60,36,-15,2,-93,5,-24,Urge
-20,-16,-32,-55,-58,-77,-65,-97,-33,-102,-67,-60,-31,-75,26,-31,-16,-98,-14,-39,Urge
-36,-26,-41,-63,-65,-88,-77,-100,-42,-109,-65,-65,-38,-82,22,-38,-23,-92,-26,-39,Urge
-45,-31,-47,-66,-64,-88,-80,-93,-46,-111,-54,-57,-32,-79,25,-33,-15,-77,-28,-20,Urge
-44,-28,-47,-65,-51,-73,-70,-77,-41,-104,-33,-37,-13,-64,38,-14,9,-56,-18,13,Urge
-32,-18,-40,-57,-28,-45,-48,-58,-24,-87,-5,-8,15,-40,59,16,41,-30,1,50,Urge
-10,0,-28,-42,-2,-15,-21,-41,0,-66,21,21,43,-12,81,46,70,-6,24,81,Urge
19,19,-16,-20,19,7,-5,-31,23,-46,40,40,61,14,99,66,85,11,45,97,Urge
46,36,-11,3,30,16,-5,-32,43,-32,47,45,66,33,109,73,84,18,56,97,Urge
64,48,-13,25,33,13,-15,-40,54,-25,46,40,63,43,108,68,70,16,54,84,Urge
69,54,-19,44,30,3,-24,-52,56,-28,38,26,54,43,99,55,49,9,41,64,Urge
61,57,-25,54,22,-11,-27,-63,52,-39,25,10,43,34,85,39,25,-2,23,41,Urge
45,56,-28,54,14,-24,-27,-73,44,-56,14,-6,31,18,68,23,1,-14,7,19,Urge
24,52,-28,49,5,-34,-33,-82,35,-74,6,-19,20,-1,53,7,-20,-24,-3,-3,Urge
5,46,-29,42,-2,-42,-45,-92,26,-92,3,-27,8,-20,40,-7,-37,-31,-5,-24,Urge
-10,40,-33,36,-8,-49,-63,-101,15,-109,3,-33,-4,-37,27,-23,-50,-38,-9,-42,Urge
-21,34,-40,32,-15,-57,-83,-110,3,-122,3,-36,-16,-52,12,-39,-57,-48,-20,-56,Urge
-31,31,-49,29,-21,-63,-98,-120,-10,-131,1,-39,-22,-64,-4,-52,-58,-60,-39,-61,Urge
-42,29,-59,25,-28,-67,-100,-128,-22,-136,-5,-41,-23,-71,-18,-62,-55,-70,-60,-57,Urge
-56,28,-66,18,-34,-66,-91,-133,-29,-135,-13,-43,-19,-73,-25,-66,-49,-75,-72,-44,Urge
-70,29,-67,10,-40,-63,-74,-134,-31,-130,-20,-44,-11,-69,-21,-64,-42,-71,-70,-26,Urge
-80,29,-64,0,-42,-55,-54,-129,-26,-122,-23,-42,-2,-58,-6,-57,-35,-58,-55,-8,Urge
-81,29,-59,-9,-40,-47,-34,-120,-14,-114,-24,-37,6,-44,16,-45,-28,-37,-32,5,Urge
-75,29,-52,-12,-37,-42,-20,-108,0,-107,-22,-30,11,-30,42,-32,-20,-14,-6,13,Urge
-61,29,-47,-10,-34,-43,-18,-97,12,-103,-21,-26,12,-17,64,-20,-15,7,17,14,Urge
-45,29,-47,-6,-36,-49,-28,-90,16,-105,-22,-26,8,-10,78,-14,-13,21,34,7,Urge
-29,28,-51,-1,-41,-60,-46,-88,12,-111,-26,-32,1,-9,83,-14,-15,25,41,-3,Urge
-19,27,-58,5,-50,-72,-67,-88,0,-119,-34,-41,-8,-12,80,-17,-22,21,40,-12,Urge
-16,24,-65,9,-58,-83,-86,-89,-15,-127,-43,-50,-17,-20,72,-22,-32,10,32,-21,Urge
-18,21,-71,6,-63,-90,-96,-89,-29,-133,-51,-55,-26,-31,59,-31,-45,-7,15,-31,Urge
-24,19,-74,-3,-64,-92,-95,-88,-37,-135,-55,-56,-33,-45,43,-43,-59,-26,-9,-42,Urge
-32,18,-73,-15,-62,-88,-87,-88,-40,-133,-54,-54,-38,-58,25,-57,-72,-47,-31,-54,Urge
-41,18,-71,-29,-58,-81,-75,-91,-39,-126,-49,-50,-42,-67,9,-69,-82,-65,-45,-64,Urge
-50,19,-66,-39,-53,-72,-59,-97,-36,-119,-41,-47,-43,-70,-5,-79,-89,-76,-52,-72,Urge
-55,20,-62,-44,-49,-64,-46,-104,-33,-112,-35,-46,-42,-71,-18,-84,-95,-83,-59,-77,Urge
-58,20,-58,-42,-45,-59,-39,-113,-30,-106,-30,-46,-41,-72,-28,-85,-98,-84,-67,-78,Urge
-60,19,-58,-34,-42,-57,-38,-119,-27,-102,-29,-48,-38,-71,-31,-84,-99,-80,-73,-77,Urge
-62,18,-61,-22,-39,-57,-40,-119,-23,-100,-28,-50,-34,-70,-29,-83,-98,-70,-74,-74,Urge
-61,19,-65,-8,-36,-58,-44,-111,-20,-100,-27,-52,-32,-69,-23,-85,-98,-59,-69,-72,Urge
-59,21,-67,1,-35,-59,-52,-98,-19,-102,-28,-57,-33,-68,-16,-91,-99,-50,-61,-70,Urge
-56,23,-66,3,-38,-64,-61,-85,-20,-108,-31,-65,-38,-68,-12,-100,-105,-45,-54,-72,Urge
-55,23,-65,-2,-45,-73,-68,-79,-22,-116,-36,-76,-46,-70,-13,-112,-115,-45,-54,-78,Urge
-58,21,-64,-11,-54,-81,-71,-82,-24,-123,-43,-88,-55,-73,-19,-123,-126,-51,-63,-88,Urge
-66,16,-63,-21,-62,-87,-71,-93,-25,-126,-47,-96,-62,-76,-27,-131,-136,-59,-77,-99,Urge
-76,10,-63,-31,-65,-87,-63,-106,-21,-123,-47,-97,-63,-76,-32,-131,-140,-65,-85,-105,Urge
-84,4,-61,-34,-62,-78,-48,-116,-13,-113,-41,-90,-57,-71,-29,-121,-138,-65,-78,-102,Urge
-86,3,-57,-29,-53,-63,-32,-115,-3,-98,-31,-77,-46,-61,-21,-101,-131,-57,-58,-89,Urge
-76,5,-50,-20,-42,-47,-21,-106,8,-82,-21,-63,-35,-51,-11,-76,-123,-46,-33,-72,Urge
-58,9,-43,-9,-33,-36,-17,-95,13,-70,-14,-52,-26,-44,-6,-56,-115,-36,-16,-58,Urge
-38,12,-40,1,-28,-32,-17,-85,11,-65,-13,-48,-20,-45,-9,-46,-111,-33,-12,-51,Urge
-26,12,-40,7,-28,-34,-22,-75,4,-66,-17,-49,-17,-51,-18,-47,-107,-36,-20,-53,Urge
-24,7,-42,7,-30,-40,-31,-67,-5,-71,-23,-52,-15,-58,-27,-54,-102,-43,-36,-58,Urge
-31,1,-43,4,-32,-45,-37,-60,-11,-77,-27,-52,-10,-63,-29,-61,-93,-47,-50,-61,Urge
-41,-3,-42,2,-31,-46,-36,-55,-12,-81,-27,-46,-2,-65,-23,-64,-84,-45,-56,-61,Urge
-47,-3,-37,1,-28,-43,-27,-52,-7,-83,-25,-36,5,-65,-11,-64,-79,-38,-56,-59,Urge
-45,1,-32,2,-25,-38,-17,-51,-1,-84,-23,-28,9,-65,0,-64,-79,-32,-58,-62,Urge
-38,7,-30,5,-27,-38,-12,-55,3,-89,-24,-26,5,-70,2,-68,-86,-33,-66,-71,Urge
-33,10,-33,4,-34,-43,-14,-63,1,-98,-31,-30,-5,-80,-6,-76,-95,-43,-81,-85,Urge
-35,7,-40,-7,-44,-53,-21,-73,-7,-111,-41,-40,-19,-95,-20,-85,-102,-58,-98,-97,Urge
-46,1,-50,-23,-54,-63,-29,-84,-15,-124,-51,-50,-30,-109,-36,-93,-105,-72,-112,-100,Urge
-61,-7,-58,-36,-60,-70,-35,-94,-23,-133,-56,-56,-36,-117,-46,-96,-100,-82,-118,-92,Urge
-75,-14,-63,-44,-61,-72,-31,-100,-27,-134,-54,-55,-35,-118,-47,-94,-91,-84,-113,-77,Urge
-82,-17,-64,-45,-57,-67,-22,-99,-26,-128,-47,-50,-29,-113,-41,-89,-82,-80,-99,-63,Urge
-81,-16,-62,-38,-53,-60,-18,-92,-23,-118,-37,-45,-22,-106,-34,-84,-79,-75,-85,-57,Urge
-74,-11,-58,-27,-52,-57,-27,-83,-19,-108,-32,-44,-18,-97,-29,-83,-84,-72,-74,-61,Urge
-63,-5,-56,-18,-53,-59,-44,-76,-15,-102,-33,-48,-19,-90,-29,-89,-97,-70,-66,-75,Urge
-56,2,-54,-17,-54,-64,-58,-72,-13,-101,-40,-53,-24,-87,-32,-97,-115,-67,-60,-93,Urge
-54,9,-52,-23,-55,-69,-63,-74,-15,-104,-51,-58,-31,-86,-38,-107,-133,-64,-54,-109,Urge
-57,14,-49,-32,-55,-72,-57,-78,-18,-111,-60,-62,-37,-86,-45,-113,-145,-61,-48,-117,Urge
-63,15,-46,-41,-53,-72,-43,-83,-22,-119,-65,-63,-41,-86,-50,-115,-148,-61,-42,-117,Urge
-70,12,-46,-46,-51,-71,-31,-87,-27,-126,-63,-63,-42,-90,-58,-112,-145,-67,-41,-109,Urge
-76,7,-47,-47,-48,-69,-29,-90,-32,-131,-56,-62,-42,-96,-68,-107,-138,-76,-51,-96,Urge
-79,3,-50,-42,-45,-68,-36,-92,-36,-134,-48,-63,-44,-103,-81,-105,-134,-86,-70,-83,Urge
-82,2,-52,-32,-42,-68,-46,-93,-40,-134,-43,-65,-46,-109,-93,-106,-134,-95,-93,-75,Urge
-83,4,-54,-20,-39,-69,-54,-96,-40,-131,-44,-68,-50,-110,-100,-109,-139,-99,-110,-78,Urge
-86,7,-55,-13,-39,-71,-56,-101,-39,-128,-52,-73,-54,-107,-98,-110,-144,-98,-112,-90,Urge
-89,9,-56,-12,-44,-75,-53,-107,-36,-124,-64,-80,-56,-99,-88,-108,-147,-93,-99,-105,Urge
-90,7,-59,-17,-51,-81,-51,-114,-30,-119,-76,-86,-54,-91,-72,-101,-143,-90,-78,-113,Urge
-88,4,-66,-23,-59,-88,-53,-120,-23,-115,-86,-92,-50,-84,-57,-92,-133,-90,-58,-110,Urge
-81,1,-74,-26,-66,-95,-62,-124,-15,-111,-90,-96,-46,-80,-46,-82,-119,-93,-47,-95,Urge
-72,3,-81,-24,-70,-99,-71,-126,-9,-108,-90,-98,-44,-81,-42,-72,-106,-98,-48,-76,Urge
-63,8,-85,-18,-69,-99,-76,-126,-5,-107,-87,-95,-44,-85,-41,-64,-96,-103,-54,-60,Urge
-54,16,-85,-13,-64,-95,-71,-126,-2,-106,-80,-87,-44,-90,-41,-57,-91,-106,-61,-55,Urge
-46,24,-78,-15,-56,-88,-58,-123,-2,-107,-71,-75,-42,-95,-42,-54,-90,-106,-66,-60,Urge
-40,29,-69,-23,-48,-79,-43,-118,-4,-106,-62,-64,-37,-102,-44,-53,-91,-106,-69,-71,Urge
-38,30,-60,-32,-40,-71,-30,-112,-7,-101,-53,-57,-31,-109,-46,-53,-92,-106,-71,-80,Urge
-40,29,-54,-37,-32,-63,-24,-107,-8,-93,-44,-54,-25,-113,-49,-55,-94,-106,-74,-85,Urge
-43,26,-51,-31,-25,-56,-25,-104,-6,-83,-35,-55,-20,-116,-53,-58,-95,-106,-77,-89,Urge
-48,24,-51,-15,-20,-53,-30,-105,-3,-75,-29,-57,-20,-115,-57,-60,-97,-106,-79,-93,Urge
-53,25,-53,3,-18,-52,-34,-108,-2,-73,-26,-61,-22,-113,-60,-61,-100,-104,-76,-95,Urge
-55,25,-55,14,-20,-53,-35,-112,-6,-78,-27,-64,-26,-108,-61,-62,-101,-100,-70,-95,Urge
-53,22,-56,13,-27,-57,-35,-112,-15,-88,-32,-66,-30,-105,-61,-63,-100,-96,-65,-91,Urge
-47,18,-59,0,-36,-64,-37,-107,-26,-103,-40,-69,-35,-104,-64,-66,-98,-91,-62,-84,Urge
-41,10,-62,-20,-46,-73,-41,-100,-40,-118,-51,-75,-41,-107,-68,-71,-97,-88,-63,-78,Urge
-36,2,-67,-41,-55,-82,-46,-96,-52,-131,-63,-81,-49,-112,-73,-77,-96,-89,-65,-76,Urge
-35,-6,-70,-55,-60,-90,-49,-97,-58,-140,-74,-86,-56,-116,-77,-82,-95,-92,-67,-80,Urge
-39,-9,-71,-59,-62,-96,-50,-102,-57,-145,-81,-88,-61,-118,-80,-87,-94,-97,-66,-87,Urge
-44,-8,-70,-53,-64,-100,-52,-109,-51,-148,-86,-90,-63,-117,-79,-90,-95,-103,-65,-95,Urge
-49,-5,-69,-39,-66,-102,-56,-117,-42,-150,-89,-92,-65,-113,-77,-92,-96,-109,-62,-101,Urge
-53,-1,-71,-27,-69,-102,-61,-124,-33,-149,-89,-93,-66,-108,-73,-93,-97,-114,-60,-104,Urge
-56,2,-75,-22,-71,-100,-64,-128,-26,-145,-85,-94,-68,-102,-68,-92,-100,-116,-60,-105,Urge
-57,7,-79,-24,-71,-95,-66,-128,-23,-138,-80,-95,-71,-97,-64,-90,-103,-117,-60,-107,Urge
-58,11,-80,-28,-68,-88,-69,-126,-23,-129,-73,-94,-73,-93,-61,-87,-106,-116,-57,-107,Urge
-57,16,-78,-32,-64,-82,-70,-123,-26,-119,-67,-92,-72,-88,-56,-81,-108,-113,-49,-101,Urge
-55,19,-72,-33,-58,-76,-68,-119,-31,-111,-62,-88,-69,-83,-50,-73,-107,-107,-40,-90,Urge
-48,19,-64,-34,-54,-72,-65,-115,-38,-110,-60,-84,-64,-79,-46,-64,-103,-100,-32,-74,Urge
-38,16,-56,-37,-50,-70,-58,-111,-46,-114,-62,-79,-59,-77,-44,-55,-95,-95,-30,-58,Urge
-29,10,-51,-41,-47,-70,-46,-111,-54,-123,-65,-73,-57,-82,-48,-49,-86,-95,-36,-47,Urge
-24,4,-48,-47,-47,-72,-32,-114,-62,-135,-71,-72,-60,-94,-59,-51,-84,-103,-51,-47,Urge
-25,-3,-48,-56,-52,-77,-26,-118,-71,-147,-79,-76,-70,-113,-76,-64,-93,-116,-70,-64,Urge
-36,-8,-51,-61,-60,-84,-30,-121,-75,-157,-87,-84,-84,-132,-93,-86,-114,-129,-86,-93,Urge
-55,-11,-56,-58,-68,-90,-39,-121,-76,-160,-92,-93,-96,-146,-106,-108,-141,-137,-96,-123,Urge
-74,-12,-59,-49,-72,-90,-48,-119,-71,-157,-92,-97,-102,-150,-111,-123,-165,-140,-97,-143,Urge
-87,-8,-58,-41,-69,-84,-49,-114,-61,-149,-86,-95,-98,-144,-109,-126,-178,-135,-91,-146,Urge
-91,-1,-53,-34,-59,-72,-40,-107,-48,-137,-77,-85,-85,-129,-100,-117,-175,-127,-83,-130,Urge
-86,7,-45,-26,-47,-59,-28,-100,-37,-127,-69,-72,-69,-115,-91,-101,-161,-123,-77,-104,Urge
-74,13,-37,-20,-42,-53,-21,-96,-34,-124,-69,-66,-59,-107,-88,-90,-146,-128,-72,-81,Urge
-62,12,-33,-18,-48,-56,-25,-97,-41,-132,-80,-69,-57,-107,-91,-89,-137,-139,-69,-73,Urge
-57,5,-37,-23,-62,-65,-36,-100,-56,-144,-97,-77,-64,-112,-96,-95,-135,-150,-65,-80,Urge
-62,-5,-45,-32,-77,-76,-49,-104,-72,-155,-112,-85,-72,-117,-102,-103,-137,-156,-60,-97,Urge
-73,-12,-54,-41,-88,-84,-55,-110,-84,-160,-120,-90,-77,-120,-106,-109,-139,-156,-54,-114,Urge
-86,-15,-60,-51,-94,-89,-53,-115,-90,-160,-121,-90,-78,-120,-109,-110,-140,-150,-53,-125,Urge
-97,-15,-63,-62,-94,-91,-47,-117,-90,-157,-117,-88,-76,-119,-113,-107,-139,-141,-57,-128,Urge
-105,-13,-64,-71,-91,-92,-46,-115,-89,-155,-114,-86,-73,-119,-119,-103,-138,-130,-67,-125,Urge
-110,-12,-63,-77,-88,-94,-50,-111,-91,-158,-114,-88,-73,-122,-127,-102,-139,-121,-75,-124,Urge
-112,-12,-62,-83,-88,-98,-58,-108,-100,-166,-120,-95,-76,-128,-136,-105,-143,-117,-80,-128,Urge
-113,-13,-64,-91,-91,-105,-67,-108,-114,-177,-130,-106,-83,-134,-144,-112,-151,-118,-82,-136,Urge
-115,-14,-68,-102,-98,-113,-77,-111,-130,-188,-140,-120,-92,-139,-150,-121,-159,-126,-85,-145,Urge
-120,-15,-74,-114,-107,-123,-85,-118,-145,-196,-150,-133,-98,-142,-154,-130,-167,-137,-94,-151,Urge
-125,-19,-80,-125,-116,-132,-92,-127,-155,-200,-158,-144,-102,-143,-156,-137,-173,-152,-109,-151,Urge
-130,-24,-86,-129,-123,-141,-98,-136,-159,-201,-163,-150,-104,-142,-154,-139,-174,-166,-126,-144,Urge
-132,-29,-91,-125,-127,-147,-100,-143,-159,-198,-165,-150,-104,-139,-150,-136,-171,-177,-136,-132,Urge
-130,-32,-92,-115,-129,-149,-99,-148,-156,-196,-164,-147,-103,-137,-145,-131,-167,-184,-135,-122,Urge
-123,-32,-92,-103,-131,-148,-96,-152,-154,-197,-163,-146,-105,-139,-142,-125,-165,-187,-123,-116,Urge
-116,-31,-91,-99,-134,-149,-98,-155,-153,-201,-163,-149,-111,-144,-143,-123,-169,-189,-105,-114,Urge
-110,-33,-92,-103,-140,-150,-104,-156,-156,-206,-162,-155,-121,-150,-145,-124,-179,-189,-86,-117,Urge
-109,-36,-95,-116,-144,-150,-109,-155,-161,-209,-158,-158,-131,-154,-146,-127,-191,-183,-69,-124,Urge
-112,-39,-98,-132,-145,-146,-109,-151,-167,-207,-149,-155,-136,-152,-143,-127,-200,-171,-55,-127,Urge
-114,-40,-97,-141,-139,-137,-105,-144,-174,-200,-137,-145,-135,-146,-135,-123,-203,-156,-42,-125,Urge
-112,-37,-92,-138,-131,-129,-101,-138,-179,-190,-124,-132,-131,-139,-127,-118,-201,-146,-34,-118,Urge
-106,-31,-85,-125,-122,-123,-99,-135,-183,-181,-117,-123,-126,-134,-127,-115,-197,-142,-34,-110,Urge
-99,-26,-77,-110,-117,-122,-99,-136,-186,-176,-117,-121,-123,-132,-135,-116,-196,-143,-45,-107,Urge
-95,-23,-72,-99,-116,-124,-101,-140,-187,-175,-123,-124,-121,-131,-149,-121,-197,-145,-63,-108,Urge
-99,-21,-70,-90,-116,-127,-102,-145,-186,-175,-132,-130,-120,-130,-162,-127,-197,-147,-80,-113,Urge
-109,-18,-72,-82,-118,-129,-98,-149,-182,-176,-140,-136,-120,-127,-168,-130,-194,-144,-89,-117,Urge
-122,-13,-75,-77,-119,-129,-92,-150,-177,-177,-144,-138,-121,-122,-167,-129,-189,-138,-87,-119,Urge
-132,-7,-78,-76,-121,-128,-89,-147,-172,-178,-147,-139,-122,-116,-158,-125,-183,-129,-76,-117,Urge
-135,-2,-78,-81,-123,-126,-90,-142,-167,-178,-150,-139,-123,-111,-145,-118,-178,-121,-59,-112,Urge
-132,3,-77,-92,-123,-124,-92,-137,-161,-177,-150,-141,-126,-105,-132,-111,-176,-116,-46,-107,Urge
-124,5,-76,-105,-122,-122,-92,-134,-153,-172,-149,-144,-128,-99,-120,-105,-176,-112,-40,-104,Urge
-113,7,-75,-114,-120,-120,-87,-133,-145,-165,-146,-147,-129,-91,-111,-101,-176,-109,-41,-102,Urge
-105,9,-77,-115,-118,-119,-83,-134,-136,-159,-140,-149,-130,-85,-105,-98,-175,-108,-44,-101,Urge
-100,11,-81,-105,-117,-120,-84,-137,-127,-158,-136,-152,-132,-82,-104,-99,-176,-112,-50,-100,Urge
-98,10,-87,-89,-118,-124,-90,-141,-120,-163,-135,-156,-135,-86,-111,-102,-180,-122,-60,-101,Urge
-99,7,-92,-75,-122,-129,-97,-147,-118,-173,-139,-160,-140,-97,-124,-108,-185,-138,-73,-105,Urge
-103,2,-94,-72,-128,-135,-106,-153,-123,-186,-147,-166,-148,-114,-143,-117,-194,-155,-88,-115,Urge
-110,-6,-95,-80,-135,-142,-118,-159,-134,-197,-159,-172,-157,-132,-162,-126,-202,-170,-103,-127,Urge
-120,-13,-94,-94,-140,-146,-127,-160,-148,-202,-168,-172,-163,-146,-175,-129,-205,-177,-113,-137,Urge
-131,-16,-91,-105,-140,-144,-124,-155,-161,-199,-171,-166,-161,-150,-180,-122,-201,-172,-112,-141,Urge
-139,-15,-84,-109,-135,-136,-113,-145,-169,-192,-168,-154,-153,-145,-174,-107,-192,-159,-99,-139,Urge
-140,-13,-74,-104,-126,-126,-95,-132,-169,-182,-160,-141,-140,-134,-163,-89,-181,-142,-77,-132,Urge
-133,-10,-64,-93,-117,-114,-76,-118,-162,-174,-149,-128,-126,-120,-149,-72,-170,-129,-52,-122,Urge
-123,-9,-53,-81,-109,-106,-57,-105,-152,-169,-141,-119,-116,-109,-139,-60,-162,-120,-32,-112,Urge
-112,-11,-45,-75,-108,-103,-45,-96,-146,-170,-138,-117,-113,-105,-134,-57,-163,-116,-22,-107,Urge
-106,-16,-41,-77,-111,-106,-44,-95,-147,-177,-143,-122,-119,-109,-138,-66,-173,-117,-27,-109,Urge
-107,-22,-41,-88,-118,-114,-53,-99,-156,-190,-154,-130,-130,-118,-147,-81,-187,-119,-46,-116,Urge
-117,-28,-45,-103,-123,-121,-66,-104,-170,-203,-166,-137,-138,-130,-158,-96,-199,-121,-68,-121,Urge
-131,-31,-49,-120,-125,-125,-79,-108,-182,-211,-173,-141,-142,-140,-165,-106,-204,-119,-84,-124,Urge
-142,-31,-53,-134,-124,-126,-89,-110,-190,-214,-174,-140,-139,-144,-167,-110,-203,-114,-89,-124,Urge
-147,-28,-54,-143,-121,-123,-94,-109,-193,-211,-169,-134,-132,-143,-165,-106,-197,-109,-82,-121,Urge
-145,-25,-53,-149,-115,-119,-93,-105,-193,-206,-160,-127,-124,-138,-160,-99,-188,-106,-72,-116,Urge
-138,-22,-49,-154,-109,-113,-88,-106,-191,-202,-150,-120,-121,-135,-158,-93,-185,-110,-69,-117,Urge
-130,-21,-45,-156,-103,-108,-79,-112,-188,-200,-146,-118,-125,-138,-161,-96,-190,-123,-81,-125,Urge
-125,-22,-41,-154,-98,-105,-75,-124,-185,-201,-147,-121,-133,-145,-167,-106,-200,-142,-103,-139,Urge
-127,-22,-41,-146,-95,-105,-80,-137,-178,-202,-149,-126,-143,-154,-173,-119,-210,-161,-125,-155,Urge
-135,-23,-45,-133,-93,-107,-92,-147,-168,-200,-149,-131,-150,-159,-173,-128,-214,-172,-134,-165,Urge
-143,-22,-52,-113,-90,-106,-100,-149,-155,-190,-143,-132,-148,-156,-164,-129,-209,-170,-126,-166,Urge
-144,-21,-57,-92,-86,-102,-95,-142,-142,-175,-129,-127,-139,-146,-148,-120,-195,-157,-103,-156,Urge
-135,-18,-58,-76,-79,-93,-78,-129,-132,-157,-113,-116,-123,-133,-131,-106,-175,-141,-79,-138,Urge
-117,-15,-55,-68,-71,-83,-57,-116,-123,-141,-96,-104,-108,-121,-117,-93,-157,-129,-64,-122,Urge
-96,-9,-50,-68,-64,-72,-39,-108,-118,-130,-84,-95,-98,-116,-110,-87,-148,-126,-64,-116,Urge
-78,-2,-44,-71,-59,-64,-30,-106,-115,-127,-76,-90,-94,-114,-108,-89,-147,-128,-72,-122,Urge
-68,6,-42,-73,-55,-61,-33,-108,-114,-128,-74,-87,-95,-111,-106,-93,-150,-130,-78,-130,Urge
-66,12,-42,-70,-54,-62,-47,-113,-112,-130,-74,-85,-100,-106,-103,-93,-153,-128,-77,-135,Urge
-67,15,-45,-66,-55,-67,-64,-117,-110,-129,-75,-83,-104,-100,-99,-88,-152,-123,-70,-131,Urge
-68,13,-49,-60,-57,-73,-79,-117,-106,-125,-77,-81,-106,-94,-97,-78,-147,-117,-59,-117,Urge
-69,10,-51,-52,-58,-79,-87,-111,-102,-119,-79,-81,-104,-89,-97,-65,-138,-113,-50,-96,Urge
-68,8,-50,-43,-58,-82,-89,-102,-99,-113,-79,-82,-99,-86,-99,-55,-129,-110,-48,-76,Urge
-67,9,-47,-35,-56,-82,-85,-92,-97,-112,-80,-86,-93,-84,-103,-51,-125,-108,-52,-64,Urge
-66,14,-44,-29,-55,-82,-78,-84,-98,-116,-84,-90,-88,-81,-107,-55,-128,-108,-60,-63,Urge
-68,20,-44,-28,-55,-83,-69,-83,-101,-125,-92,-97,-86,-78,-111,-64,-134,-109,-70,-71,Urge
-71,23,-45,-36,-59,-87,-61,-87,-102,-136,-103,-102,-85,-74,-114,-73,-140,-110,-80,-84,Urge
-76,22,-50,-51,-68,-95,-58,-95,-100,-144,-115,-107,-88,-72,-115,-81,-145,-113,-88,-97,Urge
-83,14,-56,-67,-80,-105,-63,-102,-94,-148,-125,-112,-92,-70,-112,-85,-148,-117,-88,-107,Urge
-88,6,-61,-75,-94,-115,-75,-106,-85,-147,-131,-116,-97,-67,-102,-84,-146,-118,-81,-111,Urge
-90,-1,-65,-73,-105,-122,-86,-106,-74,-140,-130,-117,-99,-59,-85,-76,-138,-112,-65,-108,Urge
-87,-5,-67,-58,-111,-125,-91,-104,-62,-129,-124,-113,-96,-45,-61,-63,-127,-98,-43,-100,Urge
-78,-3,-66,-39,-111,-123,-88,-101,-54,-120,-117,-105,-90,-28,-38,-49,-116,-81,-21,-91,Urge
-62,2,-62,-24,-107,-117,-77,-100,-50,-116,-111,-96,-84,-14,-23,-37,-107,-67,-8,-83,Urge
-46,7,-56,-20,-102,-110,-62,-102,-51,-118,-109,-89,-81,-8,-19,-32,-102,-59,-7,-79,Urge
-36,9,-50,-25,-98,-103,-50,-104,-58,-124,-109,-84,-81,-13,-26,-35,-102,-58,-17,-79,Urge
-34,5,-45,-36,-97,-98,-47,-105,-68,-133,-110,-84,-84,-27,-41,-42,-106,-64,-31,-81,Urge
-40,-3,-42,-50,-98,-95,-50,-104,-82,-141,-110,-87,-89,-43,-58,-52,-110,-74,-46,-81,Urge
-52,-13,-40,-64,-99,-94,-55,-103,-96,-146,-109,-91,-93,-58,-72,-61,-112,-84,-54,-79,Urge
-65,-21,-41,-75,-99,-93,-57,-104,-104,-147,-103,-94,-95,-67,-82,-66,-110,-91,-56,-76,Urge
-75,-24,-41,-81,-96,-92,-56,-105,-106,-145,-94,-94,-97,-70,-88,-66,-107,-95,-51,-71,Urge
-80,-23,-40,-84,-93,-91,-56,-106,-103,-142,-84,-92,-98,-70,-92,-64,-103,-97,-43,-67,Urge
-81,-18,-38,-83,-91,-90,-60,-105,-99,-141,-75,-88,-100,-69,-94,-60,-97,-97,-34,-63,Urge
-79,-13,-39,-82,-90,-87,-68,-102,-95,-140,-67,-82,-99,-67,-96,-56,-89,-96,-28,-60,Urge
-77,-11,-40,-82,-89,-83,-73,-97,-92,-139,-61,-72,-94,-65,-95,-51,-78,-95,-25,-57,Urge
-75,-9,-43,-83,-87,-77,-75,-90,-92,-137,-56,-62,-85,-63,-91,-46,-64,-95,-24,-54,Urge
-73,-8,-44,-87,-83,-70,-75,-82,-94,-134,-52,-53,-74,-62,-87,-42,-49,-97,-28,-51,Urge
-71,-6,-44,-88,-76,-63,-72,-75,-93,-130,-46,-44,-64,-61,-81,-38,-38,-102,-35,-50,Urge
-69,-1,-40,-84,-68,-56,-67,-73,-88,-123,-40,-39,-57,-60,-73,-37,-34,-107,-42,-52,Urge
-67,4,-35,-75,-60,-52,-62,-75,-80,-117,-35,-37,-57,-59,-64,-38,-40,-110,-47,-57,Urge
-63,7,-30,-64,-53,-49,-56,-82,-72,-113,-31,-38,-61,-56,-55,-40,-54,-111,-50,-62,Urge
-57,6,-25,-58,-46,-45,-46,-92,-67,-111,-28,-38,-67,-51,-47,-39,-70,-108,-52,-63,Urge
-50,3,-22,-58,-39,-38,-34,-100,-62,-109,-25,-37,-74,-45,-41,-35,-84,-101,-49,-60,Urge
-41,1,-18,-58,-35,-31,-26,-104,-56,-107,-21,-37,-81,-38,-37,-28,-93,-94,-42,-57,Urge
-30,-1,-15,-55,-32,-26,-26,-101,-50,-104,-18,-39,-86,-33,-37,-22,-96,-89,-34,-59,Urge
-20,0,-14,-47,-32,-24,-33,-95,-47,-101,-15,-41,-88,-32,-41,-18,-94,-89,-31,-66,Urge
-13,4,-14,-37,-31,-24,-42,-88,-45,-98,-13,-44,-87,-33,-49,-19,-92,-92,-33,-80,Urge
-11,9,-16,-29,-31,-25,-48,-84,-47,-97,-14,-48,-85,-38,-60,-25,-93,-100,-40,-98,Urge
-13,12,-20,-25,-30,-28,-50,-82,-52,-100,-15,-50,-80,-46,-72,-33,-96,-110,-53,-113,Urge
-19,13,-25,-28,-26,-29,-45,-81,-57,-105,-17,-49,-72,-54,-80,-38,-97,-120,-67,-120,Urge
-28,12,-30,-31,-19,-26,-37,-78,-58,-108,-15,-43,-61,-59,-81,-35,-93,-127,-73,-114,Urge
-36,13,-31,-28,-10,-20,-27,-71,-54,-106,-10,-33,-47,-59,-70,-23,-84,-128,-68,-97,Urge
-38,17,-26,-19,0,-12,-20,-64,-45,-98,-3,-22,-35,-57,-51,-9,-74,-123,-55,-78,Urge
-31,25,-17,-6,8,-6,-16,-60,-37,-88,5,-15,-27,-54,-32,1,-69,-118,-44,-66,Urge
-20,35,-8,1,12,-2,-15,-62,-33,-80,12,-13,-28,-54,-20,1,-73,-116,-42,-65,Urge
-9,41,0,-2,12,-2,-16,-69,-32,-75,15,-15,-37,-56,-18,-8,-86,-117,-50,-75,Urge
-4,41,3,-13,6,-6,-20,-77,-33,-74,14,-20,-49,-58,-23,-22,-102,-120,-60,-89,Urge
-5,33,1,-26,-1,-12,-26,-83,-32,-75,11,-23,-61,-55,-27,-31,-113,-122,-64,-99,Urge
-11,21,-4,-32,-10,-19,-33,-84,-28,-77,5,-24,-66,-46,-28,-32,-116,-118,-58,-100,Urge
-18,10,-11,-28,-17,-27,-40,-82,-22,-78,-3,-22,-64,-33,-24,-24,-107,-109,-42,-88,Urge
-23,2,-18,-17,-23,-32,-46,-78,-17,-77,-11,-20,-57,-18,-14,-11,-90,-94,-22,-71,Urge
-24,-1,-22,-6,-28,-36,-49,-76,-16,-78,-20,-20,-50,-5,-5,-1,-73,-79,-6,-55,Urge
-23,-1,-25,-6,-35,-40,-51,-79,-21,-84,-32,-27,-51,1,-3,0,-64,-71,-4,-49,Urge
-24,2,-28,-17,-47,-47,-53,-89,-34,-97,-48,-43,-64,-6,-14,-10,-68,-74,-17,-55,Urge
-30,2,-33,-36,-62,-56,-55,-102,-48,-114,-66,-65,-85,-19,-31,-25,-81,-84,-35,-69,Urge
-45,2,-38,-54,-74,-65,-59,-111,-56,-130,-82,-85,-104,-29,-44,-39,-97,-92,-46,-85,Urge
-63,1,-42,-63,-79,-72,-66,-112,-57,-139,-91,-100,-117,-33,-50,-47,-110,-95,-47,-100,Urge
-77,2,-43,-62,-75,-74,-71,-104,-51,-140,-88,-105,-117,-30,-46,-47,-114,-92,-40,-108,Urge
-81,3,-39,-54,-61,-69,-69,-86,-37,-130,-72,-97,-103,-20,-32,-35,-105,-83,-26,-105,Urge
-73,5,-29,-43,-41,-57,-61,-62,-21,-110,-46,-78,-78,-9,-12,-15,-86,-73,-13,-91,Urge
-53,7,-17,-33,-21,-43,-48,-43,-9,-90,-20,-57,-53,-2,4,5,-66,-68,-6,-74,Urge
-25,6,-6,-25,-7,-32,-32,-34,-5,-76,-1,-40,-33,-4,11,22,-49,-74,-9,-58,Urge
1,2,4,-21,1,-24,-15,-35,-8,-69,10,-28,-20,-13,11,35,-37,-86,-16,-42,Urge
18,-2,11,-22,5,-17,-1,-42,-15,-71,13,-18,-11,-23,7,44,-29,-98,-24,-31,Urge
27,-7,18,-27,6,-11,7,-51,-24,-81,12,-10,-8,-33,0,47,-27,-108,-33,-32,Urge
31,-10,26,-39,4,-7,10,-60,-34,-97,7,-5,-12,-45,-11,42,-31,-118,-49,-44,Urge
29,-11,32,-55,-2,-6,5,-70,-42,-116,1,-4,-23,-59,-27,30,-39,-129,-75,-65,Urge
20,-13,34,-71,-11,-10,-8,-80,-48,-132,-6,-10,-40,-77,-47,12,-50,-142,-106,-89,Urge
2,-17,30,-82,-21,-16,-28,-90,-51,-141,-13,-20,-58,-94,-67,-10,-62,-154,-138,-109,Urge
-21,-22,23,-86,-31,-25,-47,-96,-54,-144,-20,-32,-72,-111,-86,-29,-74,-164,-163,-122,Urge
-47,-28,14,-81,-38,-34,-61,-96,-58,-142,-27,-43,-81,-123,-98,-43,-82,-169,-173,-128,Urge
-68,-33,8,-73,-41,-42,-66,-90,-63,-138,-31,-50,-81,-129,-103,-49,-87,-168,-166,-130,Urge
-80,-35,6,-68,-43,-46,-62,-81,-68,-137,-34,-54,-77,-130,-102,-49,-89,-163,-148,-132,Urge
-82,-32,6,-66,-44,-49,-51,-74,-73,-139,-36,-55,-72,-128,-97,-46,-88,-157,-127,-136,Urge
-76,-27,7,-67,-47,-50,-40,-70,-75,-143,-36,-55,-69,-124,-91,-43,-86,-154,-105,-142,Urge
-69,-23,7,-70,-50,-50,-34,-70,-75,-144,-36,-55,-66,-117,-82,-39,-82,-153,-86,-143,Urge
-62,-20,6,-74,-52,-47,-30,-71,-74,-140,-34,-56,-65,-107,-71,-35,-77,-152,-70,-137,Urge
-55,-21,6,-77,-51,-41,-25,-73,-74,-133,-33,-57,-62,-95,-62,-31,-72,-153,-59,-122,Urge
-47,-24,7,-77,-48,-33,-20,-75,-76,-126,-32,-58,-60,-83,-55,-25,-68,-154,-55,-102,Urge
-38,-25,9,-72,-44,-27,-15,-76,-78,-120,-32,-59,-59,-72,-52,-19,-67,-154,-55,-83,Urge
-31,-23,11,-65,-40,-24,-10,-79,-80,-118,-33,-60,-59,-66,-56,-15,-67,-156,-60,-69,Urge
-26,-17,13,-56,-37,-25,-9,-81,-81,-119,-34,-60,-60,-67,-65,-17,-69,-160,-71,-65,Urge
-27,-8,13,-51,-36,-31,-12,-83,-81,-122,-37,-60,-60,-76,-77,-26,-73,-162,-85,-73,Urge
-35,-2,11,-49,-38,-38,-17,-85,-81,-127,-42,-59,-61,-89,-89,-40,-79,-163,-98,-90,Urge
-48,-1,8,-53,-43,-46,-22,-89,-82,-132,-48,-58,-63,-103,-101,-57,-87,-163,-110,-110,Urge
-63,-6,5,-58,-51,-54,-30,-93,-85,-137,-56,-58,-66,-116,-110,-74,-95,-160,-119,-128,Urge
-78,-15,0,-64,-58,-61,-40,-95,-87,-141,-61,-59,-69,-124,-119,-86,-100,-157,-125,-140,Urge
-92,-24,-7,-66,-63,-65,-51,-96,-86,-143,-61,-59,-72,-126,-128,-90,-102,-152,-128,-144,Urge
-103,-29,-13,-66,-64,-68,-62,-95,-84,-141,-58,-60,-73,-125,-136,-89,-102,-149,-129,-143,Urge
-110,-28,-17,-71,-64,-69,-71,-93,-82,-136,-53,-63,-74,-121,-143,-85,-102,-147,-131,-141,Urge
-115,-23,-21,-81,-61,-68,-72,-90,-81,-130,-46,-65,-74,-117,-147,-82,-104,-148,-133,-141,Urge
-118,-16,-23,-90,-58,-61,-61,-90,-81,-125,-40,-65,-71,-115,-148,-81,-108,-149,-134,-145,Urge
-121,-10,-22,-93,-52,-50,-40,-89,-80,-120,-36,-60,-66,-114,-145,-81,-112,-150,-133,-152,Urge
-122,-5,-18,-88,-44,-36,-17,-86,-78,-115,-30,-52,-59,-114,-141,-77,-114,-150,-129,-158,Urge
-119,-3,-10,-73,-33,-21,1,-81,-73,-111,-23,-40,-51,-113,-136,-71,-113,-150,-123,-159,Urge
-112,-3,-1,-49,-23,-9,14,-77,-67,-106,-14,-29,-43,-112,-133,-63,-110,-150,-118,-153,Urge
-102,-2,8,-27,-15,-2,17,-75,-64,-100,-6,-22,-36,-109,-131,-54,-104,-151,-117,-142,Urge
-91,-1,15,-15,-10,-2,11,-73,-64,-95,1,-20,-33,-106,-131,-47,-99,-153,-121,-129,Urge
-82,0,18,-13,-12,-9,-1,-74,-66,-92,4,-24,-36,-104,-133,-44,-95,-155,-127,-119,Urge
-77,0,16,-18,-18,-19,-14,-78,-70,-92,3,-32,-42,-103,-133,-43,-94,-152,-131,-115,Urge
-77,-2,10,-26,-26,-29,-24,-82,-71,-93,-1,-41,-49,-102,-129,-42,-93,-145,-126,-114,Urge
-78,-5,4,-34,-33,-36,-29,-85,-67,-95,-5,-48,-55,-98,-120,-36,-88,-134,-109,-114,Urge
-79,-9,1,-41,-37,-39,-31,-88,-59,-95,-7,-51,-58,-92,-109,-28,-82,-122,-85,-114,Urge
-76,-11,1,-44,-39,-39,-30,-90,-49,-95,-9,-53,-60,-84,-97,-21,-76,-112,-63,-114,Urge
-70,-13,2,-43,-41,-39,-31,-91,-40,-96,-10,-54,-61,-77,-86,-19,-72,-110,-49,-113,Urge
-64,-13,2,-43,-42,-39,-32,-89,-34,-99,-15,-56,-63,-74,-81,-22,-70,-117,-52,-113,Urge
-59,-12,0,-46,-43,-41,-33,-85,-34,-103,-23,-57,-65,-78,-82,-30,-72,-135,-70,-114,Urge
-58,-11,-2,-52,-45,-44,-34,-80,-41,-108,-34,-58,-66,-86,-87,-41,-75,-159,-98,-118,Urge
-62,-11,-5,-62,-47,-47,-38,-74,-54,-115,-45,-58,-65,-96,-94,-50,-78,-184,-126,-124,Urge
-70,-14,-8,-74,-50,-51,-44,-67,-69,-122,-53,-56,-62,-102,-102,-55,-79,-205,-150,-131,Urge
-80,-18,-10,-88,-51,-53,-50,-61,-80,-124,-57,-54,-60,-105,-110,-56,-78,-216,-165,-137,Urge
-92,-24,-10,-97,-50,-53,-55,-56,-84,-121,-55,-53,-59,-103,-116,-54,-78,-213,-173,-143,Urge
-101,-29,-9,-95,-48,-52,-60,-54,-80,-113,-49,-54,-59,-96,-119,-53,-80,-197,-174,-148,Urge
-106,-32,-8,-83,-44,-47,-60,-56,-68,-102,-39,-54,-58,-87,-117,-51,-83,-173,-166,-151,Urge
-106,-32,-8,-66,-37,-39,-49,-61,-52,-88,-27,-50,-56,-77,-111,-47,-86,-147,-148,-151,Urge
-102,-26,-8,-48,-30,-29,-34,-67,-36,-74,-16,-43,-52,-68,-100,-39,-87,-125,-122,-149,Urge
-94,-17,-7,-35,-24,-20,-24,-72,-23,-65,-5,-34,-48,-59,-87,-29,-86,-109,-90,-143,Urge
-83,-8,-5,-31,-20,-15,-19,-74,-15,-60,5,-27,-46,-52,-73,-17,-80,-102,-58,-132,Urge
-69,-2,-3,-34,-17,-11,-14,-75,-11,-58,13,-24,-46,-49,-62,-6,-72,-101,-32,-117,Urge
-56,1,3,-41,-14,-9,-9,-75,-10,-57,19,-24,-48,-51,-53,2,-61,-106,-17,-98,Urge
-44,-1,10,-47,-11,-7,-4,-75,-12,-55,22,-27,-50,-55,-47,5,-52,-113,-14,-80,Urge
-36,-2,15,-49,-8,-4,0,-77,-16,-53,21,-30,-52,-58,-43,6,-44,-119,-16,-68,Urge
-32,-2,18,-49,-5,-3,4,-78,-22,-55,16,-33,-52,-61,-44,4,-39,-123,-22,-63,Urge
-33,-1,17,-52,-4,-4,-1,-78,-28,-61,7,-36,-53,-64,-50,2,-40,-123,-31,-67,Urge
-38,1,13,-56,-5,-10,-16,-75,-31,-70,-3,-40,-55,-67,-61,-1,-45,-122,-44,-76,Urge
-45,2,5,-58,-8,-19,-37,-71,-30,-79,-11,-42,-56,-70,-72,-4,-50,-118,-60,-85,Urge
-53,3,-2,-54,-11,-26,-55,-67,-24,-85,-13,-42,-57,-73,-82,-5,-54,-115,-76,-92,Urge
-58,3,-9,-45,-12,-31,-68,-63,-13,-83,-8,-39,-57,-75,-84,-4,-55,-113,-85,-95,Urge
-60,4,-12,-31,-11,-30,-72,-59,0,-72,3,-32,-55,-73,-78,-1,-54,-109,-85,-95,Urge
-57,4,-12,-16,-7,-25,-65,-56,11,-57,16,-23,-53,-68,-65,5,-50,-104,-75,-93,Urge
-50,3,-7,-8,-3,-16,-48,-53,17,-43,28,-15,-49,-61,-51,11,-45,-96,-60,-91,Urge
-40,-1,-1,-11,2,-6,-27,-49,17,-33,35,-10,-44,-56,-39,15,-41,-88,-44,-89,Urge
-32,-8,6,-21,6,3,-7,-44,15,-28,36,-6,-39,-53,-31,17,-38,-82,-33,-85,Urge
-27,-15,11,-31,10,12,11,-38,11,-26,34,-2,-33,-53,-27,18,-34,-76,-27,-79,Urge
-24,-19,14,-37,13,18,25,-33,9,-25,30,2,-26,-55,-27,21,-28,-72,-22,-72,Urge
-24,-17,14,-39,14,21,30,-27,8,-24,27,7,-21,-58,-27,23,-22,-70,-16,-66,Urge
-25,-13,13,-34,12,19,26,-20,9,-24,24,11,-17,-57,-27,24,-17,-67,-7,-65,Urge
-25,-9,10,-27,7,14,17,-15,10,-26,22,12,-15,-52,-27,25,-11,-62,3,-67,Urge
-25,-8,7,-19,1,7,6,-13,10,-30,19,11,-14,-46,-28,25,-5,-58,9,-67,Urge
-23,-9,4,-14,-5,0,-5,-14,10,-37,17,7,-17,-38,-29,25,1,-56,9,-63,Urge
-20,-14,1,-14,-11,-6,-15,-17,10,-45,15,1,-22,-32,-29,25,5,-55,3,-55,Urge
-17,-19,1,-19,-15,-10,-24,-21,9,-53,12,-6,-29,-26,-28,24,5,-55,-10,-48,Urge
-15,-23,3,-26,-18,-12,-31,-25,9,-60,7,-13,-35,-23,-27,23,1,-55,-26,-45,Urge
-13,-24,5,-32,-21,-14,-33,-28,9,-64,1,-19,-40,-21,-25,20,-5,-55,-40,-48,Urge
-13,-22,5,-36,-28,-18,-30,-31,7,-69,-12,-26,-45,-23,-28,14,-13,-56,-50,-57,Urge
-16,-21,-1,-43,-40,-27,-26,-35,-3,-78,-31,-37,-51,-33,-40,2,-25,-62,-60,-71,Urge
-24,-22,-13,-57,-54,-38,-23,-38,-17,-88,-54,-50,-56,-51,-60,-14,-38,-75,-74,-85,Urge
-37,-26,-27,-77,-66,-47,-16,-41,-31,-97,-73,-59,-58,-70,-81,-28,-48,-91,-89,-93,Urge
-56,-31,-36,-95,-72,-50,-8,-41,-41,-99,-82,-62,-56,-84,-95,-37,-54,-103,-97,-93,Urge
-73,-32,-39,-103,-69,-46,-3,-37,-41,-92,-80,-56,-50,-89,-96,-38,-56,-109,-95,-89,Urge
-83,-28,-35,-94,-56,-33,-1,-31,-29,-77,-67,-41,-39,-84,-84,-30,-54,-107,-83,-81,Urge
-83,-18,-25,-65,-37,-16,1,-25,-10,-56,-45,-22,-27,-73,-64,-13,-47,-101,-62,-67,Urge
-71,-5,-15,-24,-19,0,2,-22,8,-36,-23,-5,-19,-62,-43,7,-40,-93,-36,-53,Urge
-50,9,-8,12,-6,8,0,-23,18,-22,-6,3,-18,-53,-30,22,-35,-88,-15,-44,Urge
-28,19,-7,31,0,10,-1,-27,19,-18,2,3,-21,-50,-29,27,-34,-87,-5,-41,Urge
-12,22,-10,35,2,7,-1,-30,14,-19,4,1,-24,-50,-34,26,-35,-86,-6,-39,Urge
-7,19,-11,27,1,5,-1,-30,6,-25,1,-3,-27,-48,-39,21,-36,-83,-9,-37,Urge
-11,14,-12,15,-3,2,-3,-28,-2,-35,-4,-7,-30,-47,-42,13,-39,-78,-9,-34,Urge
-18,10,-12,1,-9,-2,-8,-29,-12,-47,-11,-12,-35,-50,-46,4,-43,-77,-11,-33,Urge
-24,6,-13,-14,-19,-5,-15,-36,-22,-60,-19,-18,-41,-56,-50,-3,-49,-80,-14,-34,Urge
-29,2,-16,-30,-29,-11,-23,-48,-33,-72,-26,-25,-47,-63,-54,-8,-55,-85,-20,-37,Urge
-32,0,-21,-49,-40,-19,-31,-63,-44,-84,-35,-31,-52,-70,-59,-12,-61,-89,-29,-45,Urge
-34,-2,-27,-69,-50,-29,-37,-79,-51,-95,-47,-37,-57,-78,-67,-18,-65,-95,-45,-56,Urge
-38,-4,-36,-86,-56,-38,-41,-92,-53,-105,-60,-42,-63,-87,-76,-25,-68,-103,-67,-68,Urge
-47,-6,-43,-95,-59,-45,-46,-99,-50,-112,-72,-48,-69,-93,-82,-31,-69,-109,-90,-79,Urge
-58,-8,-49,-92,-60,-51,-52,-101,-43,-116,-81,-55,-77,-97,-85,-36,-71,-114,-109,-90,Urge
-68,-8,-51,-79,-59,-55,-59,-99,-33,-116,-84,-61,-85,-96,-86,-40,-74,-115,-120,-100,Urge
-76,-9,-52,-59,-57,-56,-65,-96,-25,-110,-82,-66,-91,-90,-83,-41,-79,-112,-122,-106,Urge
-79,-10,-51,-38,-55,-55,-71,-93,-19,-101,-77,-68,-91,-83,-79,-40,-85,-103,-116,-108,Urge
-76,-12,-49,-26,-54,-54,-75,-90,-16,-92,-72,-68,-89,-75,-74,-41,-94,-93,-108,-106,Urge
-69,-15,-48,-25,-54,-51,-75,-89,-15,-85,-69,-68,-85,-69,-69,-45,-103,-85,-100,-105,Urge
-62,-15,-48,-33,-51,-44,-69,-92,-14,-78,-65,-66,-81,-64,-64,-50,-110,-80,-90,-107,Urge
-56,-12,-47,-42,-47,-33,-55,-95,-14,-72,-57,-62,-76,-60,-57,-52,-113,-77,-80,-110,Urge
-50,-6,-43,-45,-42,-21,-41,-99,-14,-66,-47,-54,-70,-54,-51,-51,-109,-74,-71,-114,Urge
-44,2,-41,-44,-37,-13,-33,-103,-13,-62,-35,-45,-63,-48,-47,-48,-98,-72,-65,-116,Urge
-39,9,-40,-43,-35,-10,-31,-106,-14,-61,-26,-35,-55,-44,-47,-44,-83,-71,-59,-112,Urge
-37,12,-41,-46,-36,-11,-30,-107,-15,-63,-21,-25,-48,-45,-49,-39,-68,-70,-56,-103,Urge
-36,10,-41,-50,-39,-15,-27,-105,-13,-64,-19,-17,-43,-49,-52,-34,-55,-69,-53,-89,Urge
-33,7,-38,-54,-43,-20,-23,-98,-10,-63,-21,-10,-40,-52,-51,-28,-45,-65,-45,-73,Urge
-27,3,-34,-55,-46,-25,-18,-88,-7,-59,-25,-4,-39,-50,-45,-20,-37,-58,-30,-58,Urge
-18,-1,-29,-54,-48,-30,-16,-76,-4,-53,-28,0,-38,-44,-33,-11,-31,-47,-12,-45,Urge
-4,-3,-27,-49,-50,-36,-25,-67,-3,-47,-35,-1,-38,-37,-23,-5,-27,-39,0,-37,Urge
9,-4,-32,-45,-53,-46,-48,-67,-3,-45,-44,-8,-39,-30,-17,-5,-28,-38,0,-38,Urge
15,-5,-42,-46,-55,-55,-73,-75,-4,-48,-55,-19,-42,-28,-18,-12,-36,-44,-11,-46,Urge
13,-4,-52,-47,-54,-58,-89,-87,-3,-50,-62,-31,-43,-30,-23,-20,-48,-57,-27,-56,Urge
4,-2,-58,-42,-51,-56,-91,-98,0,-50,-62,-40,-44,-35,-29,-26,-61,-69,-42,-65,Urge
-5,3,-57,-30,-47,-48,-81,-104,2,-47,-56,-46,-44,-42,-34,-29,-74,-77,-52,-69,Urge
-10,9,-52,-17,-43,-39,-63,-103,4,-40,-45,-48,-43,-46,-36,-29,-83,-75,-54,-70,Urge
-10,14,-46,-7,-40,-31,-45,-98,5,-32,-33,-47,-45,-48,-35,-28,-91,-67,-51,-69,Urge
-6,15,-43,-1,-42,-30,-36,-95,2,-29,-26,-47,-51,-52,-37,-28,-99,-61,-54,-70,Urge
-3,13,-43,-4,-49,-36,-37,-99,-5,-32,-27,-50,-62,-58,-42,-34,-111,-61,-66,-80,Urge
-4,8,-48,-16,-56,-45,-44,-108,-11,-38,-32,-52,-72,-63,-47,-42,-123,-64,-77,-95,Urge
-13,2,-53,-31,-57,-48,-47,-114,-11,-41,-34,-48,-74,-58,-43,-43,-127,-66,-78,-105,Urge
-25,0,-52,-40,-49,-41,-44,-110,-1,-34,-26,-34,-66,-45,-28,-33,-121,-60,-65,-103,Urge
-30,3,-44,-39,-32,-25,-34,-95,19,-15,-6,-11,-47,-22,-1,-11,-103,-44,-35,-87,Urge
-23,8,-30,-27,-7,-2,-20,-68,48,15,23,18,-21,9,37,22,-76,-17,11,-57,Urge
-1,14,-10,-4,21,25,-4,-35,79,48,56,49,8,42,77,59,-42,16,62,-20,Urge
35,18,11,23,43,47,11,-4,101,72,81,73,33,68,105,92,-11,43,99,13,Urge
76,18,28,42,54,60,23,19,107,80,91,82,50,81,114,113,12,58,115,34,Urge
110,13,38,46,57,64,31,32,100,75,88,80,60,81,104,120,26,62,111,40,Urge
127,7,43,41,54,64,34,38,87,62,79,72,63,72,81,117,32,58,93,34,Urge
127,2,44,28,48,60,33,38,74,48,69,61,58,56,49,103,27,45,62,18,Urge
112,-1,41,12,41,53,29,30,61,34,58,49,45,32,14,80,12,24,23,-6,Urge
88,-4,35,-5,34,45,23,16,47,20,49,37,27,5,-21,52,-10,-6,-16,-31,Urge
59,-7,27,-18,28,37,16,-2,33,4,40,25,8,-22,-53,23,-37,-39,-49,-58,Urge
30,-10,21,-31,23,31,15,-20,18,-14,32,14,-7,-48,-79,-4,-63,-72,-73,-84,Urge
4,-14,18,-44,20,28,19,-34,7,-30,26,7,-13,-68,-98,-24,-82,-98,-86,-103,Urge
-18,-16,22,-51,20,28,27,-38,0,-39,25,6,-11,-81,-107,-33,-91,-108,-88,-111,Urge
-32,-18,31,-48,24,29,34,-32,0,-38,28,11,-5,-85,-106,-34,-89,-104,-81,-108,Urge
-37,-17,44,-36,28,30,39,-19,5,-27,32,19,1,-80,-100,-30,-81,-91,-72,-99,Urge
-35,-15,54,-19,31,29,38,-6,11,-15,32,24,3,-72,-91,-26,-72,-77,-65,-88,Urge
-29,-13,57,-5,29,24,28,0,13,-6,28,23,0,-62,-84,-24,-67,-66,-58,-80,Urge
-26,-12,54,2,25,17,15,-1,13,-4,18,16,-4,-52,-79,-24,-66,-59,-49,-79,Urge
-26,-11,47,0,21,13,5,-8,15,-5,8,5,-8,-42,-73,-28,-69,-53,-37,-85,Urge
-27,-10,41,-8,19,12,2,-15,17,-8,0,-5,-11,-33,-67,-32,-73,-49,-25,-97,Urge
-29,-10,39,-20,20,14,5,-21,18,-13,-5,-15,-15,-26,-62,-38,-77,-46,-16,-109,Urge
-31,-11,40,-34,22,17,12,-24,15,-18,-9,-23,-21,-23,-60,-43,-78,-46,-15,-119,Urge
-34,-12,42,-45,24,19,19,-26,9,-22,-11,-28,-27,-24,-63,-49,-77,-52,-27,-124,Urge
-40,-13,42,-50,26,21,20,-29,3,-25,-12,-31,-34,-30,-72,-54,-75,-61,-47,-123,Urge
-50,-14,40,-50,27,21,16,-34,-3,-28,-11,-32,-39,-39,-87,-56,-74,-73,-67,-118,Urge
-63,-15,37,-45,28,21,12,-40,-4,-29,-10,-28,-40,-48,-104,-57,-75,-84,-83,-112,Urge
-73,-15,34,-35,30,23,13,-47,-2,-29,-7,-22,-38,-57,-120,-60,-81,-93,-94,-110,Urge
-79,-14,33,-22,33,27,17,-52,1,-30,-4,-17,-37,-64,-134,-68,-93,-101,-100,-115,Urge
-79,-12,35,-14,36,31,19,-55,3,-33,-2,-17,-39,-69,-145,-80,-112,-110,-103,-129,Urge
-78,-9,37,-13,36,32,12,-55,3,-36,-3,-22,-45,-76,-156,-95,-132,-120,-109,-147,Urge
-80,-7,37,-16,35,31,1,-52,1,-38,-5,-29,-52,-85,-164,-108,-148,-129,-118,-161,Urge
-85,-6,37,-18,34,30,-7,-44,-1,-36,-7,-34,-56,-92,-167,-115,-155,-133,-127,-167,Urge
-91,-4,38,-17,35,31,-10,-33,-2,-29,-7,-33,-55,-96,-165,-113,-153,-127,-131,-165,Urge
-94,-3,42,-11,37,32,-7,-20,-1,-20,-6,-28,-50,-97,-159,-104,-146,-114,-127,-159,Urge
-90,-4,45,-5,38,33,0,-10,1,-13,-5,-21,-44,-97,-152,-92,-138,-98,-116,-153,Urge
-80,-5,46,1,40,34,7,-4,4,-7,-3,-14,-39,-96,-145,-80,-132,-82,-102,-150,Urge
-66,-7,44,4,41,34,9,-1,9,-1,0,-9,-36,-93,-142,-71,-127,-68,-89,-150,Urge
-51,-8,41,6,40,32,5,-3,16,5,3,-7,-33,-89,-142,-65,-124,-59,-78,-150,Urge
-38,-8,37,7,39,30,2,-9,23,9,7,-5,-29,-85,-143,-58,-118,-57,-72,-145,Urge
-29,-7,32,7,37,28,4,-17,29,12,10,-2,-22,-81,-142,-49,-109,-56,-66,-134,Urge
-21,-5,28,7,35,27,9,-22,33,14,13,0,-15,-77,-138,-39,-97,-55,-58,-119,Urge
-13,-3,25,3,31,26,12,-22,32,14,13,1,-9,-74,-132,-28,-86,-49,-46,-105,Urge
-3,-2,24,-7,25,26,13,-20,29,12,11,0,-7,-74,-127,-21,-79,-42,-37,-95,Urge
6,-2,24,-21,18,25,11,-19,24,7,7,-3,-9,-76,-124,-17,-75,-34,-35,-88,Urge
13,-1,26,-35,12,24,8,-18,22,2,3,-7,-14,-79,-124,-17,-73,-28,-39,-84,Urge
18,3,28,-43,8,23,4,-21,23,-2,0,-10,-19,-80,-123,-19,-71,-27,-47,-82,Urge
18,8,30,-42,6,22,3,-28,27,-4,-1,-11,-23,-78,-122,-21,-68,-30,-52,-82,Urge
15,12,31,-34,6,22,5,-34,32,-5,-2,-7,-25,-75,-117,-22,-64,-38,-51,-82,Urge
10,13,32,-20,7,22,5,-36,34,-4,-3,-2,-25,-71,-110,-21,-58,-43,-43,-82,Urge
3,11,32,-7,8,22,4,-33,31,-2,-3,3,-26,-68,-104,-21,-56,-44,-35,-81,Urge
-3,5,33,0,8,24,4,-28,22,-2,-4,4,-30,-69,-102,-26,-59,-42,-30,-85,Urge
-10,-4,35,-1,7,25,5,-23,8,-8,-4,2,-35,-75,-105,-34,-66,-38,-31,-90,Urge
-18,-14,37,-9,7,26,6,-19,-7,-17,-1,-1,-39,-85,-111,-45,-72,-37,-36,-97,Urge
-26,-21,39,-18,10,29,11,-16,-17,-25,5,-3,-40,-94,-117,-56,-78,-39,-41,-102,Urge
-33,-22,41,-24,16,34,21,-12,-19,-28,17,0,-38,-99,-118,-65,-78,-42,-45,-105,Urge
-39,-17,44,-23,26,42,33,-3,-12,-24,30,7,-29,-97,-113,-70,-72,-42,-45,-103,Urge
-40,-7,48,-16,38,52,40,9,0,-15,44,16,-17,-89,-102,-69,-60,-37,-40,-93,Urge
-37,4,52,-8,47,60,43,20,14,-5,52,23,-6,-79,-89,-64,-48,-26,-33,-80,Urge
-29,13,54,-4,52,66,42,26,27,3,51,25,0,-70,-77,-57,-40,-14,-25,-68,Urge
-17,18,54,-2,52,67,39,24,35,5,43,22,0,-64,-70,-51,-36,-5,-18,-61,Urge
-5,17,53,-2,48,64,32,17,38,4,30,18,-3,-64,-67,-45,-35,-2,-13,-58,Urge
5,14,49,-5,43,59,28,8,38,5,18,15,-7,-66,-67,-39,-38,-3,-14,-62,Urge
10,11,46,-7,40,55,29,3,39,11,12,13,-11,-69,-70,-36,-42,-5,-21,-72,Urge
11,9,43,-1,40,53,30,3,41,21,11,14,-12,-70,-74,-35,-46,-7,-34,-87,Urge
8,10,41,12,43,53,32,5,42,29,14,14,-11,-68,-76,-34,-48,-8,-48,-98,Urge
3,12,39,24,49,55,34,7,42,33,17,14,-9,-63,-77,-33,-49,-9,-60,-100,Urge
-4,13,39,32,54,57,38,4,40,30,19,13,-6,-58,-77,-30,-47,-12,-70,-93,Urge
-11,13,39,34,57,58,38,-1,36,22,18,11,-4,-54,-76,-26,-45,-19,-77,-77,Urge
-19,10,39,30,56,57,36,-6,33,14,16,9,-5,-51,-72,-21,-41,-27,-76,-58,Urge
-24,6,42,20,52,55,35,-7,30,10,16,8,-7,-50,-67,-16,-39,-35,-64,-44,Urge
-26,1,47,7,47,54,37,-5,30,12,19,7,-7,-49,-60,-12,-39,-38,-48,-39,Urge
-21,-4,52,-4,42,52,41,-2,32,19,23,8,-7,-48,-55,-9,-40,-38,-30,-44,Urge
-11,-5,57,-8,39,51,46,2,35,26,25,9,-5,-47,-51,-8,-44,-36,-15,-55,Urge
0,-5,63,-9,36,51,51,5,38,31,26,11,-2,-48,-50,-8,-49,-36,-5,-68,Urge
9,-2,67,-9,34,52,54,3,39,31,27,15,1,-51,-53,-11,-58,-36,-2,-80,Urge
14,2,70,-8,33,54,54,-1,40,27,28,18,3,-56,-59,-17,-69,-36,-5,-87,Urge
15,8,71,-6,33,55,51,-4,40,23,30,20,3,-61,-65,-25,-80,-34,-12,-92,Urge
12,12,70,-1,34,56,46,-6,40,19,33,19,1,-66,-70,-33,-87,-32,-20,-91,Urge
6,14,68,6,38,57,43,-5,39,19,39,17,-2,-69,-71,-39,-88,-30,-30,-82,Urge
-1,15,66,14,42,59,44,-2,36,22,44,14,-4,-69,-70,-41,-83,-29,-41,-68,Urge
-8,15,65,18,45,60,49,2,32,25,46,10,-7,-66,-69,-39,-72,-31,-52,-54,Urge
-12,14,66,16,46,61,54,4,29,27,46,8,-8,-63,-66,-33,-60,-35,-56,-43,Urge
-13,13,69,8,44,61,55,4,28,28,46,10,-7,-57,-62,-23,-50,-36,-50,-35,Urge
-9,12,73,0,41,60,49,0,29,27,43,14,-6,-50,-58,-10,-43,-32,-37,-31,Urge
3,13,74,-6,38,56,39,-7,33,25,38,17,-5,-45,-55,1,-38,-26,-25,-31,Urge
18,14,71,-7,36,52,31,-13,42,26,33,20,-3,-42,-55,10,-35,-19,-13,-33,Urge
30,14,63,-2,36,50,27,-14,51,29,29,22,-2,-40,-54,17,-32,-12,-3,-36,Urge
40,15,54,2,38,51,32,-10,57,32,28,24,-1,-40,-56,19,-29,-7,2,-40,Urge
46,14,47,1,40,52,42,-6,57,34,27,27,-1,-43,-58,19,-27,-4,5,-45,Urge
50,14,43,-5,43,54,51,-2,51,34,29,32,1,-46,-62,20,-25,-3,6,-49,Urge
50,13,43,-14,44,54,51,1,40,33,31,38,2,-51,-68,21,-24,-2,3,-51,Urge
49,13,45,-23,43,51,41,3,27,31,33,43,3,-56,-72,25,-24,-4,-4,-48,Urge
48,12,47,-30,41,48,31,5,16,30,34,48,4,-59,-75,31,-22,-8,-16,-41,Urge
47,12,48,-31,39,46,27,11,10,33,36,52,7,-58,-72,39,-16,-11,-26,-33,Urge
48,12,48,-25,36,47,29,19,12,40,41,56,10,-51,-64,47,-6,-12,-30,-25,Urge
49,13,48,-13,35,50,34,27,20,50,47,58,13,-40,-51,52,4,-10,-25,-21,Urge
53,13,49,3,32,52,38,32,29,60,51,57,14,-29,-38,52,11,-5,-14,-24,Urge
57,12,48,12,27,49,38,31,33,63,49,52,11,-24,-31,48,12,-2,-5,-34,Urge
60,8,45,8,19,40,31,22,28,59,39,41,3,-26,-34,38,3,-3,-2,-50,Urge
57,1,38,-7,10,27,22,8,18,50,25,27,-9,-35,-45,26,-12,-9,-7,-66,Urge
49,-8,29,-25,4,17,17,-5,8,40,12,16,-19,-45,-56,18,-25,-19,-14,-73,Urge
37,-15,23,-39,4,13,17,-15,1,34,5,13,-24,-52,-63,18,-29,-29,-18,-65,Urge
27,-19,23,-42,9,17,21,-21,1,33,9,18,-23,-57,-62,25,-24,-36,-17,-47,Urge
23,-19,28,-33,18,27,28,-21,6,37,21,29,-17,-58,-54,35,-15,-38,-10,-26,Urge
25,-14,37,-16,26,39,34,-18,15,42,35,41,-12,-58,-44,43,-9,-36,-2,-13,Urge
33,-8,45,-3,28,44,32,-17,19,42,42,46,-13,-63,-41,41,-11,-35,-3,-16,Urge
41,-3,47,-2,21,36,17,-22,17,35,37,41,-23,-72,-48,29,-24,-37,-15,-35,Urge
42,-2,43,-13,9,21,-7,-31,12,27,25,27,-40,-82,-62,10,-45,-42,-33,-65,Urge
34,-4,36,-24,-2,5,-30,-41,9,22,11,13,-58,-88,-74,-8,-66,-50,-48,-95,Urge
19,-8,30,-30,-8,-5,-44,-49,8,21,2,3,-71,-89,-81,-18,-81,-58,-56,-113,Urge
4,-10,28,-30,-8,-8,-45,-55,9,23,1,-1,-77,-85,-79,-19,-89,-65,-56,-118,Urge
-6,-13,30,-26,-5,-4,-34,-58,11,28,5,-1,-78,-77,-71,-13,-91,-67,-46,-113,Urge
-8,-14,36,-21,-2,2,-14,-58,16,33,10,-1,-76,-68,-59,-4,-90,-64,-33,-106,Urge
-2,-14,40,-18,0,6,4,-56,18,37,12,1,-72,-60,-51,2,-88,-58,-23,-100,Urge
8,-14,40,-20,-2,7,12,-54,19,39,10,2,-66,-55,-49,3,-84,-53,-20,-99,Urge
16,-14,36,-27,-6,5,10,-53,19,42,6,5,-60,-53,-54,1,-80,-50,-24,-101,Urge
20,-14,31,-33,-6,6,4,-50,19,47,6,11,-52,-53,-62,-2,-73,-48,-29,-104,Urge
18,-13,26,-33,-1,10,2,-47,18,51,10,21,-42,-56,-71,-3,-64,-49,-35,-104,Urge
14,-12,23,-30,7,17,1,-44,15,53,18,29,-32,-61,-79,-2,-53,-54,-42,-98,Urge
9,-10,21,-30,13,23,-2,-41,9,50,27,31,-26,-68,-86,0,-44,-60,-48,-91,Urge
4,-11,20,-32,17,27,-7,-39,2,44,34,29,-25,-74,-88,1,-38,-66,-51,-85,Urge
-2,-12,18,-36,19,28,-13,-40,-3,36,39,24,-26,-78,-85,1,-37,-70,-50,-84,Urge
-6,-13,15,-38,19,26,-21,-44,-3,27,43,19,-31,-79,-78,-2,-42,-70,-46,-90,Urge
-9,-13,10,-37,17,22,-29,-51,1,21,43,13,-39,-80,-70,-9,-53,-67,-44,-100,Urge
-11,-14,3,-30,15,16,-35,-59,7,16,41,6,-48,-81,-62,-21,-68,-63,-43,-111,Urge
-13,-16,-3,-19,13,11,-37,-67,10,11,36,-2,-58,-82,-57,-34,-83,-60,-45,-119,Urge
-16,-18,-8,-11,10,5,-35,-73,7,5,27,-13,-66,-83,-56,-48,-96,-58,-50,-123,Urge
-21,-21,-11,-8,7,-1,-33,-75,-2,-4,16,-25,-72,-83,-58,-61,-104,-58,-59,-124,Urge
-28,-23,-10,-10,2,-7,-35,-75,-17,-15,3,-37,-76,-81,-63,-72,-106,-60,-71,-124,Urge
-39,-25,-8,-16,-4,-13,-41,-75,-33,-25,-10,-46,-77,-79,-71,-79,-104,-62,-82,-124,Urge
-53,-26,-8,-24,-9,-18,-49,-74,-47,-34,-22,-52,-75,-76,-78,-84,-101,-61,-86,-124,Urge
-67,-26,-9,-31,-15,-21,-55,-73,-55,-39,-31,-55,-72,-72,-83,-88,-99,-57,-83,-123,Urge
-79,-24,-10,-40,-19,-22,-59,-70,-59,-41,-38,-56,-67,-69,-84,-90,-98,-52,-74,-122,Urge
-87,-23,-10,-51,-23,-23,-59,-66,-57,-40,-41,-56,-62,-64,-78,-89,-97,-44,-59,-122,Urge
-89,-20,-9,-60,-28,-24,-58,-61,-48,-36,-38,-55,-59,-55,-62,-83,-95,-35,-36,-119,Urge
-85,-18,-8,-65,-34,-29,-59,-56,-37,-30,-34,-53,-56,-44,-41,-72,-88,-23,-13,-115,Urge
-72,-15,-9,-66,-41,-37,-65,-53,-25,-24,-29,-51,-53,-33,-21,-57,-78,-12,-1,-109,Urge
-53,-13,-12,-59,-47,-47,-74,-52,-16,-20,-27,-48,-51,-25,-9,-40,-65,-4,0,-101,Urge
-34,-13,-18,-45,-51,-56,-83,-52,-12,-18,-26,-46,-48,-23,-5,-23,-52,-1,-5,-92,Urge
-16,-13,-24,-29,-53,-60,-85,-54,-12,-19,-27,-43,-44,-25,-10,-9,-42,-2,-13,-80,Urge
-1,-13,-26,-16,-52,-59,-80,-56,-16,-20,-25,-40,-42,-33,-20,0,-35,-9,-20,-70,Urge
9,-12,-25,-8,-50,-54,-72,-56,-20,-19,-21,-36,-42,-45,-31,5,-30,-19,-23,-62,Urge
14,-10,-22,-3,-50,-49,-66,-56,-22,-17,-16,-34,-46,-58,-41,8,-28,-29,-15,-58,Urge
15,-8,-22,-6,-52,-44,-63,-56,-24,-13,-11,-32,-50,-69,-46,13,-25,-35,1,-54,Urge
14,-8,-24,-17,-55,-42,-62,-54,-23,-9,-8,-30,-51,-76,-46,20,-21,-37,19,-49,Urge
15,-11,-28,-30,-56,-40,-63,-53,-20,-4,-6,-27,-48,-78,-43,29,-16,-33,31,-43,Urge
18,-15,-30,-38,-54,-37,-64,-53,-15,0,-4,-24,-43,-77,-37,38,-12,-28,35,-37,Urge
24,-19,-31,-38,-47,-34,-63,-51,-11,1,-2,-20,-37,-74,-31,45,-7,-21,31,-29,Urge
30,-20,-28,-33,-39,-30,-61,-47,-6,2,0,-16,-32,-70,-26,50,-2,-14,25,-19,Urge
37,-19,-23,-24,-32,-26,-61,-43,-4,1,1,-13,-29,-69,-25,50,1,-10,16,-11,Urge
43,-17,-18,-18,-32,-26,-65,-40,-8,-6,-2,-16,-32,-73,-33,42,-1,-11,3,-14,Urge
45,-18,-17,-24,-40,-31,-73,-41,-21,-18,-10,-26,-40,-83,-47,28,-11,-18,-12,-25,Urge
41,-22,-19,-42,-51,-37,-81,-44,-35,-29,-20,-37,-48,-94,-63,12,-23,-26,-27,-39,Urge
31,-28,-22,-62,-60,-40,-84,-48,-46,-33,-29,-45,-53,-104,-76,1,-32,-36,-41,-49,Urge
18,-33,-22,-71,-60,-36,-79,-50,-47,-28,-32,-42,-51,-108,-82,-1,-33,-43,-51,-51,Urge
9,-32,-17,-62,-50,-25,-67,-42,-38,-14,-26,-28,-42,-104,-74,10,-25,-43,-49,-41,Urge
5,-26,-7,-41,-31,-6,-48,-24,-19,9,-12,-4,-26,-87,-51,34,-7,-32,-23,-15,Urge
10,-16,8,-15,-8,17,-25,1,5,35,8,25,-5,-61,-15,67,18,-10,22,18,Urge
27,-6,26,7,12,36,-3,26,27,56,28,50,14,-33,23,95,40,17,73,45,Urge
52,0,42,22,23,47,11,44,41,67,41,62,26,-11,51,110,55,39,116,59,Urge
76,0,49,28,25,48,17,51,45,67,46,62,31,0,65,112,61,51,141,62,Urge
94,-3,48,29,20,42,21,46,44,58,41,54,30,-1,63,104,61,49,141,57,Urge
101,-6,39,29,12,33,22,30,41,44,31,42,24,-13,48,91,57,37,118,47,Urge
98,-8,26,29,4,24,17,9,36,28,18,31,16,-33,28,77,50,20,83,34,Urge
89,-8,12,29,-3,15,8,-10,30,12,7,23,6,-52,10,63,43,6,48,19,Urge
75,-8,0,23,-8,9,-3,-25,23,-2,0,18,-3,-65,-2,51,37,0,20,4,Urge
61,-8,-6,13,-10,4,-13,-35,17,-10,-3,15,-10,-72,-7,39,32,1,0,-10,Urge
48,-7,-7,9,-7,3,-20,-38,15,-11,1,15,-14,-69,-7,29,30,8,-10,-20,Urge
37,-4,-3,14,0,5,-23,-32,17,-3,11,17,-14,-60,-2,20,28,16,-12,-25,Urge
31,1,6,24,9,9,-24,-22,23,9,22,19,-13,-49,5,15,25,23,-9,-23,Urge
30,7,15,33,17,15,-24,-13,32,22,32,20,-11,-38,12,16,22,30,0,-14,Urge
33,13,22,39,23,21,-23,-7,39,32,39,23,-9,-29,20,23,21,38,16,1,Urge
39,17,25,40,25,25,-22,-5,42,36,42,24,-9,-25,24,30,21,46,33,16,Urge
47,18,24,36,20,25,-21,-9,38,34,39,19,-12,-26,20,31,19,47,42,25,Urge
52,16,19,26,11,19,-22,-17,29,27,29,10,-18,-34,7,21,13,39,37,22,Urge
49,11,12,13,0,10,-22,-26,19,17,16,-2,-28,-47,-12,4,2,21,23,11,Urge
36,6,6,2,-10,0,-24,-34,9,8,4,-16,-38,-61,-31,-16,-13,-5,8,-4,Urge
15,0,2,-5,-19,-10,-29,-39,1,0,-6,-29,-49,-73,-45,-33,-29,-32,-2,-21,Urge
-5,-7,0,-8,-24,-19,-38,-42,-3,-6,-11,-39,-59,-79,-51,-42,-41,-53,-3,-33,Urge
-22,-13,-1,-8,-27,-25,-45,-43,-4,-8,-12,-43,-63,-76,-48,-40,-46,-60,7,-37,Urge
-31,-15,-2,-9,-26,-28,-46,-40,-4,-7,-9,-40,-64,-66,-40,-33,-46,-51,22,-37,Urge
-30,-14,-2,-13,-24,-30,-46,-37,-3,-5,-6,-35,-62,-54,-32,-28,-45,-35,30,-38,Urge
-21,-12,-2,-17,-23,-31,-48,-35,-1,-4,-8,-31,-61,-46,-31,-31,-49,-19,27,-44,Urge
-11,-10,-2,-17,-22,-30,-51,-36,0,-4,-12,-29,-59,-43,-33,-40,-57,-8,18,-52,Urge
-6,-9,-2,-12,-20,-27,-51,-37,3,-4,-17,-28,-57,-44,-36,-47,-66,1,12,-56,Urge
-6,-10,-1,-3,-16,-20,-50,-35,7,-2,-16,-26,-52,-45,-34,-47,-70,7,13,-55,Urge
-5,-13,1,11,-10,-12,-46,-30,15,3,-10,-22,-43,-45,-28,-39,-65,14,19,-48,Urge
0,-14,3,27,-3,-3,-38,-21,21,10,0,-17,-32,-44,-21,-21,-51,18,29,-37,Urge
9,-12,7,37,2,3,-30,-13,24,15,8,-12,-23,-44,-17,-1,-34,18,35,-27,Urge
20,-8,9,37,2,5,-27,-8,25,17,13,-10,-19,-45,-18,16,-20,13,33,-22,Urge
29,-6,10,30,-1,4,-29,-5,27,18,13,-10,-19,-45,-22,29,-8,5,24,-16,Urge
33,-5,8,26,-4,3,-30,1,32,23,12,-9,-17,-40,-25,41,6,0,14,-6,Urge
33,-5,5,28,-2,7,-27,10,41,33,13,-3,-9,-30,-23,55,22,1,8,9,Urge
32,-5,7,36,6,16,-17,23,50,45,19,9,4,-16,-17,69,38,10,6,26,Urge
34,-2,13,46,18,28,-2,35,57,58,28,24,20,-3,-10,83,53,21,8,43,Urge
42,5,22,56,31,40,14,44,60,68,36,38,35,6,-4,95,65,30,16,56,Urge
53,14,32,62,39,50,25,47,59,73,43,49,46,11,0,103,70,35,29,61,Urge
63,25,39,63,42,54,29,44,57,72,47,54,50,12,3,105,68,34,45,60,Urge
70,32,43,56,39,55,27,40,58,70,52,55,48,12,7,103,62,32,61,57,Urge
75,36,43,49,35,52,23,38,64,68,56,52,45,13,13,98,54,30,73,51,Urge
79,35,40,48,29,46,19,38,73,65,58,49,42,13,18,89,43,25,71,40,Urge
81,32,34,55,24,36,13,39,82,59,57,46,37,9,17,76,28,16,54,25,Urge
79,27,28,64,18,25,8,42,85,51,53,43,31,4,13,63,14,5,32,10,Urge
71,22,21,72,15,17,4,43,81,44,48,41,26,0,7,53,2,-4,12,-5,Urge
59,17,14,75,14,12,-1,41,74,39,41,39,21,-1,3,48,-6,-10,0,-17,Urge
45,15,10,72,15,11,-8,36,65,37,37,37,17,-2,2,47,-11,-10,-2,-24,Urge
32,13,9,65,20,16,-13,32,57,40,37,36,13,-2,5,50,-14,-5,7,-27,Urge
25,14,11,57,25,24,-14,26,49,43,40,34,8,-2,8,53,-18,3,19,-28,Urge
25,17,15,48,30,31,-15,20,40,44,44,32,2,-6,11,54,-22,9,30,-29,Urge
29,21,18,37,32,37,-16,13,31,41,49,31,-4,-10,12,56,-23,10,39,-23,Urge
33,26,18,25,33,41,-16,9,26,38,52,32,-9,-11,15,61,-16,10,51,-8,Urge
37,31,18,17,34,43,-16,6,24,35,54,34,-11,-6,21,71,0,10,64,15,Urge
43,33,17,12,32,41,-20,1,25,31,53,35,-11,1,27,82,20,11,74,39,Urge
51,31,14,13,28,34,-28,-4,30,27,49,31,-10,6,33,90,37,13,77,58,Urge
57,25,10,23,22,24,-37,-8,37,23,43,25,-8,8,35,92,47,17,74,65,Urge
59,16,4,36,15,13,-41,-9,39,18,37,17,-5,7,35,86,48,24,68,60,Urge
57,8,-1,45,9,6,-39,-9,36,11,32,11,-1,4,34,77,44,32,62,50,Urge
50,3,-4,43,4,2,-33,-8,31,4,25,7,1,0,33,66,36,37,56,38,Urge
42,0,-5,33,-3,-2,-27,-7,24,-5,12,3,-2,-4,29,51,25,38,49,26,Urge
34,-3,-4,17,-14,-9,-26,-6,16,-17,-6,-4,-12,-8,24,35,13,34,41,13,Urge
24,-7,-5,-3,-27,-18,-26,-7,11,-28,-26,-11,-24,-12,19,21,1,28,31,3,Urge
13,-10,-9,-23,-37,-27,-29,-7,13,-36,-41,-18,-36,-17,14,12,-8,19,21,-2,Urge
2,-9,-14,-32,-43,-32,-32,-5,24,-37,-49,-22,-44,-19,12,11,-13,13,14,-4,Urge
-5,-3,-20,-25,-39,-31,-31,0,42,-28,-45,-21,-42,-16,16,20,-11,13,14,-1,Urge
-7,8,-23,-3,-27,-21,-27,9,66,-7,-28,-12,-31,-5,29,37,-2,23,21,6,Urge
2,24,-23,32,-11,-8,-22,20,91,19,-7,1,-15,11,48,58,12,38,33,17,Urge
22,39,-20,69,3,3,-23,29,107,43,14,14,0,26,68,75,26,55,45,31,Urge
47,47,-15,95,10,9,-29,32,113,60,29,24,10,37,84,86,37,69,55,45,Urge
71,48,-12,103,14,12,-36,29,113,71,42,30,16,41,96,91,45,78,63,60,Urge
88,45,-11,95,16,13,-41,19,108,77,53,33,17,40,102,90,49,80,67,73,Urge
99,43,-12,83,17,14,-41,5,101,79,62,33,16,35,101,82,47,75,67,75,Urge
103,43,-14,73,20,16,-38,-9,92,77,69,31,13,29,94,68,38,67,60,63,Urge
101,44,-15,67,24,19,-32,-21,82,72,74,28,10,25,83,52,26,57,47,37,Urge
93,48,-15,62,29,22,-28,-28,75,68,77,27,6,22,71,39,14,47,33,8,Urge
82,51,-12,57,33,24,-31,-27,70,66,79,29,1,20,61,32,6,40,25,-14,Urge
70,53,-8,51,36,25,-37,-21,70,67,79,35,-5,19,57,30,3,35,24,-24,Urge
63,51,-3,48,37,26,-42,-13,76,71,78,41,-11,17,57,31,3,33,25,-21,Urge
60,49,0,52,35,26,-44,-7,86,76,76,45,-16,17,59,34,4,32,27,-9,Urge
61,45,1,63,33,26,-40,-4,96,76,73,47,-19,19,60,35,3,33,28,5,Urge
62,42,2,78,30,26,-31,-6,100,70,69,44,-21,21,57,35,0,36,26,17,Urge
61,39,2,85,25,24,-21,-14,102,59,65,37,-22,22,49,35,-3,41,23,21,Urge
58,37,1,80,20,21,-15,-22,102,50,62,29,-22,23,42,35,-4,48,24,20,Urge
50,35,-3,68,15,16,-18,-26,104,47,60,23,-19,22,37,38,0,57,36,16,Urge
44,36,-8,61,11,10,-28,-25,106,50,61,20,-14,22,37,43,8,66,54,13,Urge
41,39,-15,60,8,3,-42,-20,108,55,61,21,-8,23,37,47,15,71,69,14,Urge
43,44,-21,63,7,-1,-51,-13,106,58,62,26,-1,22,37,53,21,70,78,20,Urge
47,49,-23,63,9,0,-50,-5,101,59,65,33,4,21,39,59,25,68,83,30,Urge
53,55,-22,60,13,4,-43,2,95,60,70,41,6,20,43,65,25,67,85,38,Urge
60,58,-17,54,18,9,-35,6,89,62,76,47,4,21,49,69,23,70,87,40,Urge
67,58,-13,48,22,16,-30,7,87,68,83,50,0,22,55,70,20,76,89,38,Urge
71,56,-10,49,27,23,-27,7,92,80,93,52,-3,26,63,69,19,86,92,33,Urge
74,53,-7,63,34,30,-27,9,103,95,104,53,-5,32,72,66,20,94,93,29,Urge
78,51,-5,83,42,36,-27,9,113,108,115,53,-4,39,79,63,22,96,87,26,Urge
82,48,-3,97,49,43,-21,6,116,113,123,53,-2,42,82,59,23,94,75,27,Urge
85,45,0,95,55,49,-8,2,112,110,126,52,-2,41,84,56,22,89,63,30,Urge
85,40,5,79,57,53,6,-3,104,103,123,49,-1,37,86,57,19,87,57,32,Urge
83,33,12,56,56,52,12,-6,98,95,115,45,-1,34,89,59,17,89,60,34,Urge
79,26,19,37,51,49,13,-7,95,86,102,39,0,32,92,64,18,94,69,36,Urge
75,20,25,25,45,43,9,-4,95,79,87,34,1,32,96,70,22,101,80,39,Urge
73,16,30,18,38,35,3,1,97,72,72,29,1,32,99,73,27,106,86,41,Urge
73,15,31,18,32,25,-7,4,98,68,60,23,-2,32,99,71,30,108,84,39,Urge
76,17,26,23,25,15,-23,2,95,64,50,14,-9,31,96,64,28,106,73,33,Urge
79,20,15,30,18,4,-40,-4,91,60,42,2,-19,28,87,54,19,100,54,23,Urge
78,24,-1,37,13,-6,-54,-13,88,59,36,-9,-29,23,78,44,7,92,32,13,Urge
73,26,-17,47,9,-12,-61,-22,91,62,34,-15,-35,19,73,38,-3,85,16,6,Urge
65,29,-30,61,8,-14,-58,-26,96,69,36,-15,-35,19,74,41,-7,82,12,6,Urge
58,31,-36,70,10,-13,-45,-26,98,77,41,-9,-27,22,81,51,-2,84,19,14,Urge
56,33,-36,70,13,-10,-27,-22,95,83,46,3,-15,27,91,67,9,90,35,30,Urge
59,35,-31,64,16,-7,-14,-15,90,90,53,14,-3,35,104,86,27,100,58,49,Urge
67,36,-24,55,18,-7,-13,-7,84,95,58,20,6,45,115,103,44,109,83,67,Urge
79,34,-21,47,17,-10,-23,1,79,95,60,22,9,54,124,116,59,116,100,80,Urge
91,30,-23,41,14,-15,-37,8,76,89,59,20,7,60,130,123,68,119,108,87,Urge
100,24,-26,37,10,-19,-44,14,77,81,58,19,5,63,135,126,74,121,108,88,Urge
105,19,-26,37,7,-22,-43,19,81,73,57,22,5,65,139,128,76,121,104,84,Urge
108,15,-22,40,4,-22,-34,25,83,65,55,27,9,63,140,129,79,122,97,79,Urge
109,14,-15,42,4,-18,-20,30,84,58,54,37,19,60,138,133,85,124,91,78,Urge
109,15,-5,41,4,-11,-6,36,82,52,54,49,31,54,134,140,92,126,85,85,Urge
110,17,4,36,3,-4,2,39,77,47,54,60,42,45,126,145,97,125,79,95,Urge
111,18,10,27,-1,1,1,37,69,41,50,66,47,32,115,145,94,120,70,103,Urge
112,18,9,15,-6,1,-2,30,60,34,42,66,46,17,103,138,86,110,56,104,Urge
110,16,3,3,-12,-2,-2,19,53,28,32,62,41,2,89,126,76,96,40,99,Urge
103,12,-3,-3,-16,-7,1,7,48,24,21,57,35,-11,77,114,68,80,30,91,Urge
93,8,-7,-2,-17,-13,6,-2,46,26,13,52,30,-17,71,106,65,68,33,86,Urge
82,6,-9,3,-16,-18,9,-3,47,33,10,50,27,-16,74,106,71,64,49,88,Urge
75,6,-8,11,-15,-20,8,1,52,45,12,49,25,-9,82,113,81,69,72,94,Urge
75,7,-4,17,-16,-21,1,8,57,57,16,46,24,1,92,119,89,79,93,100,Urge
81,9,-1,19,-20,-22,-11,14,59,65,19,39,21,7,98,120,91,92,103,99,Urge
89,9,-1,17,-26,-24,-23,20,59,69,21,30,17,9,98,112,86,102,100,91,Urge
94,9,-5,12,-30,-24,-32,25,56,69,23,22,14,4,93,101,77,104,90,81,Urge
95,7,-9,7,-28,-21,-34,27,53,69,29,20,15,-4,87,91,67,101,80,74,Urge
93,6,-9,5,-20,-12,-25,27,52,69,40,25,20,-10,85,87,59,95,79,71,Urge
92,6,-3,7,-6,0,-7,24,52,72,54,36,28,-12,87,88,53,90,85,71,Urge
93,8,7,13,9,13,11,21,54,77,67,49,38,-10,92,93,49,88,94,73,Urge
98,12,18,22,22,25,25,16,55,83,79,61,47,-6,96,98,48,87,97,74,Urge
104,18,26,32,31,34,34,9,56,86,87,66,52,-5,93,99,49,84,88,73,Urge
108,25,27,37,34,36,33,2,55,88,89,65,51,-8,83,96,49,77,69,70,Urge
106,30,21,33,33,32,23,-2,55,90,88,60,46,-13,68,91,49,68,47,67,Urge
100,33,13,26,30,26,9,-2,57,94,88,55,41,-20,54,86,51,60,28,63,Urge
92,33,7,21,28,21,0,0,61,99,88,54,38,-27,42,82,54,53,13,56,Urge
86,32,4,24,29,19,-3,6,63,101,88,57,38,-36,33,79,57,45,1,48,Urge
80,28,5,34,32,19,-4,17,64,101,87,64,43,-43,29,78,63,41,-2,41,Urge
75,24,8,50,38,23,-4,31,62,100,87,73,52,-49,28,82,69,37,0,39,Urge
71,22,11,65,45,29,-4,45,59,99,86,82,60,-54,27,86,74,33,3,39,Urge
69,23,15,73,51,35,-3,54,54,95,84,87,66,-60,24,90,74,27,3,40,Urge
66,26,20,67,56,41,0,59,47,91,82,89,67,-65,21,92,70,22,4,42,Urge
63,31,25,48,60,46,4,59,39,86,80,87,67,-67,18,93,64,17,4,41,Urge
60,37,31,28,63,50,9,53,32,82,78,82,62,-67,15,91,58,11,3,37,Urge
59,43,36,15,63,52,16,43,31,80,76,74,53,-66,15,86,50,6,0,29,Urge
58,46,39,14,60,49,21,32,38,81,74,65,40,-62,19,80,42,6,-2,21,Urge
58,48,38,25,53,43,20,23,52,88,72,56,26,-54,26,77,35,9,-2,15,Urge
59,49,34,43,46,34,12,16,68,98,70,48,14,-46,36,74,28,15,-1,8,Urge
64,50,28,59,41,26,0,10,82,105,71,43,5,-38,46,74,21,21,2,1,Urge
71,52,22,65,37,19,-15,4,92,108,75,42,1,-32,57,78,16,24,11,-4,Urge
78,54,15,62,37,15,-30,-1,99,109,84,46,1,-28,69,88,16,28,29,-4,Urge
88,55,9,54,39,17,-38,-4,105,110,97,54,5,-23,84,102,22,33,55,1,Urge
100,56,6,51,45,25,-33,-4,112,116,113,66,13,-18,100,117,32,41,84,9,Urge
113,56,10,56,53,36,-16,0,120,128,129,80,25,-12,116,132,45,51,108,18,Urge
129,57,19,67,61,47,6,7,124,139,140,94,38,-5,127,143,57,62,120,24,Urge
145,60,29,76,66,56,27,14,120,146,144,104,51,-2,129,146,65,67,115,24,Urge
156,62,37,76,68,60,41,23,111,145,142,110,61,-1,124,142,69,68,98,18,Urge
159,62,39,70,67,60,46,31,102,142,137,111,69,-1,117,136,71,69,78,13,Urge
152,60,37,63,64,57,45,41,98,140,131,109,74,0,114,131,76,73,60,14,Urge
141,57,33,57,60,54,44,50,99,140,125,106,77,5,116,130,83,82,48,24,Urge
129,54,30,59,56,50,45,57,106,143,121,104,78,13,123,132,91,92,46,38,Urge
120,52,30,68,52,46,46,62,115,147,116,101,78,24,135,138,99,104,55,53,Urge
116,52,31,76,45,39,43,65,120,147,109,97,74,38,147,143,101,113,70,63,Urge
118,54,30,76,37,29,32,64,121,140,100,89,65,49,154,143,96,117,85,65,Urge
121,58,22,71,28,16,13,59,118,130,90,79,54,54,154,139,83,114,96,60,Urge
120,60,11,65,19,3,-8,50,113,121,81,66,43,54,149,131,67,108,102,51,Urge
115,61,-2,60,10,-8,-27,37,105,112,74,54,34,48,139,120,50,100,100,42,Urge
108,59,-11,51,0,-17,-42,22,93,103,68,42,26,37,125,106,33,91,88,32,Urge
100,54,-16,41,-9,-24,-51,9,81,97,63,32,19,23,110,92,19,82,73,23,Urge
92,47,-18,35,-16,-27,-52,-2,69,94,60,25,13,10,100,78,8,75,61,14,Urge
85,42,-17,32,-20,-27,-47,-10,58,93,58,21,7,0,92,65,2,71,52,6,Urge
81,39,-15,29,-19,-25,-41,-14,49,93,59,18,3,-10,86,54,1,69,44,2,Urge
76,42,-13,29,-14,-21,-35,-14,46,95,63,19,1,-20,80,45,3,68,36,1,Urge
71,48,-11,33,-5,-15,-28,-11,47,96,68,21,1,-32,71,38,4,65,28,4,Urge
65,53,-8,38,5,-9,-20,-8,53,96,72,23,2,-44,62,33,5,59,22,9,Urge
59,54,-5,38,13,-4,-14,-2,62,96,76,26,5,-53,56,31,7,53,21,15,Urge
53,53,-3,38,20,1,-8,7,74,96,79,28,9,-57,54,32,12,48,26,24,Urge
48,50,-2,42,26,8,-2,17,86,98,81,31,14,-53,57,39,20,47,36,33,Urge
45,47,-2,49,31,16,6,29,95,102,84,35,23,-40,67,50,32,52,50,41,Urge
46,45,-3,53,36,24,12,45,104,110,90,43,34,-23,79,65,48,64,63,46,Urge
51,47,-2,57,40,31,18,62,112,120,100,54,47,-4,92,79,62,78,71,47,Urge
61,50,1,63,44,38,27,77,120,131,112,67,58,11,102,91,73,92,74,46,Urge
74,54,7,70,46,43,35,86,130,142,125,81,70,23,110,103,82,103,77,47,Urge
88,58,13,76,46,47,40,88,139,150,139,94,79,31,114,114,89,110,81,52,Urge
103,61,18,81,44,48,40,83,147,155,152,104,86,35,117,126,95,114,87,61,Urge
116,61,21,84,41,48,36,72,154,160,162,110,89,37,122,137,99,116,94,72,Urge
128,60,19,83,37,46,25,61,160,165,171,112,89,38,129,145,100,116,102,80,Urge
137,59,13,81,34,42,11,54,166,172,179,112,87,40,139,147,97,114,108,80,Urge
143,58,5,83,33,39,0,52,174,181,186,111,84,43,152,146,94,110,115,75,Urge
148,58,-2,91,36,38,-3,54,183,192,192,112,83,48,163,143,91,106,121,68,Urge
152,59,-4,103,41,39,0,58,192,200,198,112,82,53,168,140,88,103,125,64,Urge
156,62,-3,119,46,39,3,61,198,203,201,109,79,54,164,136,82,100,124,63,Urge
160,64,-3,132,50,37,3,59,198,199,199,103,73,50,152,130,74,97,118,63,Urge
162,63,-5,136,53,34,-1,51,191,188,191,92,62,43,137,123,66,94,107,63,Urge
159,59,-11,129,56,30,-8,40,178,174,178,79,50,34,123,115,58,90,94,62,Urge
151,54,-18,116,58,27,-16,27,164,159,165,67,39,25,111,109,54,84,77,57,Urge
140,50,-24,102,60,27,-20,18,151,148,156,59,31,18,104,105,56,79,62,48,Urge
126,48,-26,88,65,33,-18,16,140,141,155,58,32,16,103,105,61,79,55,41,Urge
115,51,-22,80,71,42,-11,20,136,142,161,62,38,19,110,108,68,83,58,38,Urge
109,56,-14,79,76,52,-4,29,139,150,171,67,46,26,121,112,71,90,71,41,Urge
109,61,-4,85,80,61,3,38,149,162,180,70,53,35,135,115,69,97,90,47,Urge
114,64,2,96,82,67,11,45,161,175,185,72,59,45,149,118,65,105,111,52,Urge
121,63,7,107,84,72,24,48,173,187,188,74,67,54,161,123,64,113,126,57,Urge
129,62,12,114,86,77,37,52,181,195,190,78,77,60,166,129,68,118,128,61,Urge
137,63,18,116,88,81,46,56,183,198,191,84,88,62,164,135,76,120,118,63,Urge
142,65,23,113,89,82,48,61,178,196,191,91,98,59,155,141,88,118,102,65,Urge
141,66,26,107,88,81,45,65,167,191,190,99,106,53,145,149,99,113,91,69,Urge
136,65,28,100,86,78,41,66,155,185,189,106,109,47,139,159,107,107,90,74,Urge
130,60,29,95,82,75,37,66,148,182,189,111,108,43,139,167,108,99,98,76,Urge
126,55,28,96,77,73,37,64,144,182,190,114,103,39,142,171,103,96,107,72,Urge
126,52,26,100,71,71,39,63,139,184,189,115,97,35,145,170,95,96,108,65,Urge
129,51,24,102,63,66,36,62,127,181,184,113,89,27,142,163,86,97,97,58,Urge
134,50,18,97,50,54,23,58,108,169,167,104,77,14,127,151,73,91,74,49,Urge
136,47,9,83,32,35,0,47,81,149,140,89,61,-6,101,133,57,75,43,39,Urge
129,40,-3,63,15,16,-26,32,55,126,111,72,45,-25,71,117,43,52,15,31,Urge
111,30,-13,43,6,4,-44,19,40,110,92,61,34,-36,50,108,37,33,-1,28,Urge
91,22,-17,27,11,6,-45,12,42,108,89,61,33,-31,49,109,43,26,2,34,Urge
76,23,-13,19,34,26,-23,21,62,127,110,80,49,-5,73,125,66,44,30,54,Urge
74,32,3,26,73,62,21,49,98,169,152,117,84,42,122,160,108,91,82,94,Urge
92,52,28,49,120,108,75,91,142,223,206,166,132,100,187,207,162,156,150,150,Urge
133,77,56,86,163,150,124,138,187,276,255,214,182,156,251,257,217,223,221,211,Urge
188,100,82,130,195,184,161,183,227,320,292,254,227,204,305,302,266,282,284,268,Urge
242,119,104,179,217,209,190,224,264,355,318,284,266,244,346,341,308,329,336,319,Urge
288,135,123,229,231,230,215,260,295,379,335,307,298,276,374,373,344,366,374,360,Urge
325,148,139,274,239,244,237,290,318,393,344,321,322,300,391,397,374,394,398,391,Urge
354,157,152,305,241,252,251,312,327,395,345,328,338,315,396,413,396,413,411,409,Urge
375,164,160,317,237,252,255,326,322,388,342,327,346,319,391,419,408,423,412,415,Urge
385,166,164,312,226,245,245,329,304,374,334,319,343,310,377,413,409,420,401,409,Urge
387,164,161,294,209,231,224,321,279,354,320,304,327,290,352,392,396,403,376,391,Urge
378,157,151,269,187,210,199,303,249,330,301,283,302,260,320,359,370,372,340,359,Urge
357,143,134,242,165,187,179,280,222,305,280,263,272,228,284,318,335,332,294,319,Urge
326,127,116,217,144,165,170,255,199,283,260,244,242,196,247,276,297,289,245,276,Urge
288,109,98,195,125,146,166,232,183,265,243,227,216,171,217,241,264,254,200,238,Urge
250,93,81,173,110,129,160,212,174,252,229,213,198,157,198,216,239,232,168,213,Urge
216,81,67,150,100,116,149,195,174,245,220,203,186,153,194,206,226,226,155,203,Urge
192,74,55,133,96,112,137,183,184,247,217,200,184,162,208,212,227,236,165,210,Urge
181,74,48,130,100,117,134,181,201,259,223,207,190,184,238,234,244,258,200,231,Urge
187,80,48,145,114,130,139,190,219,276,236,222,204,214,275,265,270,287,248,260,Urge
210,92,54,173,130,145,148,203,233,294,252,240,218,241,306,299,296,310,293,287,Urge
245,106,62,206,144,156,153,217,240,306,264,252,226,256,321,325,313,323,321,305,Urge
278,117,69,232,151,161,152,228,240,311,268,255,227,258,321,339,318,327,328,315,Urge
301,125,72,245,152,159,147,231,238,310,267,249,221,250,311,341,313,326,322,319,Urge
311,127,71,245,150,155,141,226,236,305,263,240,210,238,297,333,302,322,309,319,Urge
310,127,68,240,147,150,140,213,238,300,260,230,197,224,284,318,288,316,296,314,Urge
303,126,64,238,146,147,145,196,243,292,260,223,186,214,274,301,275,308,288,307,Urge
290,125,62,239,148,147,152,177,246,283,264,219,179,209,268,285,264,303,286,301,Urge
277,125,63,237,153,148,155,162,246,272,269,216,174,207,265,271,257,300,285,296,Urge
263,129,64,232,157,148,148,152,243,260,271,210,171,206,260,257,250,301,278,287,Urge
251,136,66,224,158,146,134,148,237,249,268,198,170,203,250,241,242,304,262,275,Urge
236,141,65,216,158,144,120,147,230,239,261,184,169,197,238,223,233,306,239,259,Urge
219,144,62,209,158,142,112,147,222,232,251,170,168,188,223,204,223,305,212,237,Urge
203,143,60,205,156,141,108,146,214,227,241,160,167,175,206,186,210,297,184,211,Urge
189,138,58,203,151,139,106,143,206,221,232,153,163,157,188,170,195,281,161,183,Urge
177,127,54,196,145,135,103,137,195,214,224,150,158,138,173,156,181,261,147,158,Urge
166,114,49,183,138,130,99,131,184,205,219,152,153,122,164,147,170,242,142,143,Urge
160,100,42,162,132,126,95,128,172,195,218,157,150,112,161,143,163,227,146,138,Urge
157,90,35,140,129,125,96,128,164,190,219,163,150,110,165,143,159,219,154,143,Urge
157,85,31,125,130,127,104,130,160,189,222,170,152,113,174,147,158,218,162,154,Urge
158,83,32,121,132,130,116,133,158,190,226,175,157,118,184,153,159,221,165,165,Urge
161,84,37,125,135,132,127,136,156,192,228,179,161,123,191,158,162,225,161,172,Urge
164,87,45,133,137,131,131,141,153,193,227,180,163,124,193,161,165,223,152,172,Urge
167,90,52,145,137,126,127,143,145,193,223,177,161,121,190,161,168,216,142,164,Urge
168,92,56,157,133,119,118,141,132,187,216,173,158,116,183,160,172,206,136,155,Urge
166,91,56,161,129,114,111,135,116,180,208,167,152,111,175,163,175,194,137,149,Urge
162,89,54,157,126,111,108,126,102,175,202,161,145,108,167,172,177,185,145,149,Urge
159,87,52,151,121,107,104,118,94,172,195,151,136,107,161,183,176,182,155,155,Urge
159,83,49,146,116,102,95,112,90,171,186,140,125,105,158,195,174,184,162,167,Urge
161,79,44,142,110,95,87,111,89,170,179,129,117,106,159,204,173,191,164,180,Urge
163,75,39,139,106,88,82,114,89,170,172,122,112,111,163,207,171,198,166,187,Urge
165,72,35,137,102,82,80,115,89,167,166,117,110,118,169,203,167,204,169,186,Urge
166,72,32,134,98,79,83,109,88,161,160,115,112,125,172,191,160,206,171,177,Urge
165,72,31,131,93,78,88,97,87,153,153,114,113,128,170,173,148,202,167,159,Urge
161,73,31,124,88,78,91,81,87,144,146,111,109,125,161,151,131,191,153,136,Urge
152,72,31,114,81,77,89,66,90,136,140,105,99,115,147,127,109,175,133,112,Urge
140,70,29,101,74,75,84,53,95,131,136,98,84,103,134,105,89,159,111,90,Urge
127,68,26,90,69,72,78,48,103,132,137,92,70,93,128,92,75,149,98,77,Urge
115,66,23,82,67,72,75,51,115,138,143,91,62,92,132,91,73,147,99,78,Urge
108,69,22,80,70,75,76,61,128,150,153,96,63,99,144,102,81,152,112,93,Urge
108,75,25,87,75,81,78,71,141,163,161,103,72,109,156,116,93,159,124,112,Urge
115,81,30,105,79,86,78,81,150,173,164,108,83,115,160,126,103,162,128,126,Urge
123,84,35,124,82,90,79,89,154,176,161,109,93,116,157,128,109,160,126,131,Urge
125,85,40,138,84,93,85,97,152,175,154,109,101,113,151,126,114,155,124,128,Urge
121,85,46,143,86,95,94,104,149,172,147,108,106,110,147,123,120,152,127,122,Urge
117,86,52,142,87,94,101,110,146,170,142,108,108,108,145,124,129,151,136,118,Urge
116,87,55,135,87,89,103,116,144,169,141,110,108,109,145,130,142,155,147,122,Urge
120,88,55,129,86,83,100,120,142,170,144,114,109,111,145,142,157,161,156,134,Urge
127,89,52,127,85,78,93,122,137,170,150,118,110,111,143,154,170,165,158,147,Urge
136,90,47,128,82,74,86,121,128,165,155,119,110,107,137,162,175,167,152,153,Urge
143,87,42,124,77,73,82,121,119,157,157,117,109,100,129,162,173,168,143,147,Urge
143,84,39,115,72,75,85,122,110,149,156,115,108,92,123,157,165,168,135,134,Urge
139,82,40,103,67,77,92,121,103,140,152,111,104,85,117,148,151,167,123,119,Urge
132,82,42,88,58,76,97,118,96,129,141,102,93,73,108,133,131,161,105,104,Urge
123,79,41,71,45,68,94,108,89,117,124,90,77,58,94,114,107,151,84,91,Urge
109,73,34,59,34,56,84,96,81,104,106,79,59,41,78,95,83,139,67,81,Urge
90,64,26,54,26,44,71,84,72,94,93,72,44,26,64,78,63,129,57,72,Urge
72,54,19,52,25,36,59,78,63,87,86,70,34,15,55,66,50,122,54,65,Urge
59,46,17,49,31,37,54,79,58,90,91,75,34,12,57,59,47,122,58,61,Urge
54,42,22,47,47,50,59,88,62,102,108,88,44,21,70,62,58,131,70,64,Urge
59,46,33,53,68,71,77,101,72,121,132,106,62,37,92,73,78,146,87,75,Urge
75,55,48,67,86,91,101,113,82,137,155,122,79,54,114,86,100,159,104,91,Urge
95,65,60,83,97,103,120,120,90,147,168,130,91,68,131,97,117,168,121,105,Urge
113,73,66,98,101,106,126,123,95,151,170,130,96,78,137,104,126,171,136,113,Urge
123,76,67,109,97,99,117,124,96,150,162,122,93,82,133,106,126,169,143,115,Urge
127,74,64,113,87,84,97,123,92,144,146,108,82,78,119,104,121,162,136,112,Urge
123,69,56,102,73,66,71,118,83,134,126,92,67,69,100,99,112,152,119,110,Urge
113,63,46,77,62,52,49,112,72,123,108,79,53,57,82,96,105,141,101,111,Urge
99,57,36,47,55,45,38,104,60,113,97,70,44,47,71,94,102,134,89,117,Urge
86,54,29,23,52,42,37,95,50,104,90,67,39,40,66,94,101,128,86,121,Urge
78,53,26,12,52,41,39,83,41,96,86,65,34,36,65,91,97,122,86,119,Urge
75,52,24,12,50,40,39,73,36,92,85,63,30,35,67,86,92,118,87,109,Urge
72,49,24,21,49,38,35,64,38,95,86,62,25,34,71,82,86,119,87,94,Urge
72,46,23,37,45,33,28,60,47,102,88,61,19,33,78,81,78,123,85,79,Urge
75,42,21,50,41,27,21,58,59,111,92,60,12,30,86,82,69,129,83,65,Urge
81,37,16,53,35,20,12,58,70,118,95,61,7,29,94,85,60,135,83,54,Urge
88,34,11,45,31,14,1,58,78,124,100,62,4,30,100,86,52,138,89,46,Urge
96,32,5,37,30,10,-8,57,81,127,105,64,2,32,106,84,45,137,95,40,Urge
102,31,1,33,30,9,-12,54,77,128,107,65,2,36,109,79,40,133,100,36,Urge
106,29,-1,31,31,12,-8,50,68,128,108,65,6,40,111,73,37,127,102,35,Urge
106,26,-2,29,33,18,2,46,60,129,108,64,12,44,113,71,36,121,103,40,Urge
103,24,-1,26,37,27,19,44,55,132,107,63,20,47,116,71,38,117,100,48,Urge
100,22,1,21,40,33,34,43,53,135,103,62,25,48,119,72,40,115,94,54,Urge
98,20,3,17,41,33,37,41,52,137,96,59,25,48,119,72,41,113,86,55,Urge
95,17,2,12,39,27,25,35,49,135,87,53,19,44,117,71,43,111,80,54,Urge
90,13,0,8,34,19,6,25,45,130,79,44,6,37,112,69,44,109,77,51,Urge
84,11,-2,5,28,10,-12,14,39,124,71,34,-9,30,108,66,42,110,76,49,Urge
80,12,-4,0,21,3,-25,7,31,116,64,23,-23,24,104,65,40,115,76,50,Urge
76,16,-6,-8,14,0,-30,4,24,108,59,16,-32,19,99,64,36,121,74,51,Urge
72,23,-6,-15,11,-1,-26,5,17,102,55,11,-36,14,93,59,31,126,67,49,Urge
67,28,-5,-17,9,-1,-18,8,10,98,53,9,-37,9,84,51,24,125,56,43,Urge
61,28,-5,-11,7,-1,-8,11,5,96,52,8,-36,3,75,41,17,117,47,38,Urge
52,22,-5,-2,6,-1,1,14,5,98,54,9,-34,-2,67,34,13,106,42,36,Urge
42,10,-5,5,5,0,10,16,10,102,58,12,-29,-2,62,29,11,97,41,34,Urge
35,-3,-4,5,4,2,19,20,15,108,63,16,-23,1,60,28,13,94,42,33,Urge
32,-12,-2,-3,5,5,23,26,19,113,69,23,-15,8,61,30,17,95,45,30,Urge
31,-14,0,-16,9,9,21,31,19,116,74,31,-5,15,62,32,20,97,48,25,Urge
31,-12,1,-27,18,16,16,34,15,117,80,39,4,21,62,33,20,95,52,19,Urge
31,-6,4,-29,31,23,10,34,11,117,87,44,9,24,62,34,15,87,58,13,Urge
30,3,7,-21,45,31,6,31,7,115,95,46,7,23,62,34,6,75,61,12,Urge
30,11,11,-8,56,36,4,29,7,114,101,46,2,19,61,33,-4,63,57,11,Urge
30,17,14,4,61,38,2,29,10,111,104,45,-5,13,57,32,-12,56,47,7,Urge
30,21,15,7,60,38,1,31,11,106,104,45,-9,4,48,32,-13,57,32,2,Urge
29,23,15,-2,54,36,0,34,6,98,100,45,-9,-6,36,33,-8,59,14,-4,Urge
26,22,13,-21,44,33,-4,36,-3,87,93,43,-6,-17,22,34,1,61,0,-8,Urge
22,20,9,-39,36,30,-9,35,-13,76,85,41,-1,-27,10,35,8,61,-8,-9,Urge
15,17,6,-48,31,28,-11,32,-22,66,75,38,1,-34,2,35,12,58,-7,-7,Urge
8,15,3,-45,30,28,-10,27,-24,60,66,34,1,-38,2,34,10,56,-1,-3,Urge
4,16,0,-31,31,28,-4,20,-20,60,57,30,-3,-37,9,31,3,55,8,-1,Urge
1,18,-1,-12,33,27,3,13,-10,65,52,25,-7,-33,21,26,-8,56,18,-2,Urge
2,20,0,8,35,23,6,7,0,75,49,18,-14,-27,33,19,-20,56,27,-7,Urge
4,25,2,20,33,17,3,2,9,86,47,7,-22,-23,40,10,-33,53,32,-15,Urge
5,30,3,24,27,8,-6,-2,16,94,44,-6,-30,-21,41,-1,-47,48,32,-25,Urge
3,35,1,22,19,-2,-16,-5,20,97,40,-18,-37,-21,37,-12,-59,42,31,-34,Urge
-3,38,-5,15,9,-11,-24,-6,22,95,35,-27,-40,-22,32,-21,-68,37,34,-36,Urge
-11,38,-13,7,-1,-16,-28,-4,23,89,30,-31,-41,-20,29,-25,-71,35,40,-30,Urge
-18,34,-21,0,-9,-18,-30,-2,23,81,26,-31,-38,-16,28,-24,-67,36,46,-19,Urge
-21,27,-26,-4,-14,-19,-33,1,19,74,24,-27,-33,-12,30,-21,-57,37,48,-8,Urge
-21,19,-28,-5,-16,-19,-37,5,10,69,27,-21,-26,-9,33,-17,-44,39,44,-1,Urge
-17,13,-26,-1,-14,-17,-42,8,0,67,31,-15,-20,-10,35,-13,-32,41,35,-1,Urge
-11,12,-20,5,-10,-16,-46,10,-9,68,36,-10,-16,-15,36,-10,-24,42,23,-7,Urge
-5,14,-12,9,-5,-13,-44,12,-14,71,38,-5,-12,-23,35,-6,-20,41,12,-15,Urge
0,17,-4,9,1,-8,-34,16,-15,74,39,2,-8,-30,35,-1,-19,41,7,-22,Urge
3,21,5,8,6,-2,-19,24,-10,79,39,11,-3,-32,36,6,-17,43,11,-24,Urge
7,24,11,6,10,2,-9,35,-3,83,37,19,3,-29,38,11,-14,47,22,-23,Urge
9,26,12,2,11,4,-7,45,4,86,33,23,7,-23,39,12,-11,51,34,-22,Urge
9,27,8,-2,10,2,-12,51,9,85,28,23,9,-16,41,10,-9,55,41,-22,Urge
7,28,0,-6,8,-1,-22,51,12,82,22,18,7,-8,43,7,-8,56,42,-20,Urge
3,28,-6,-7,5,-4,-33,45,12,77,15,10,1,-3,45,3,-10,56,37,-18,Urge
-3,28,-8,-7,3,-4,-43,35,10,71,6,0,-7,-2,45,0,-14,52,27,-19,Urge
-9,29,-3,-10,1,-3,-47,24,7,65,-3,-10,-17,-6,42,-6,-22,46,10,-25,Urge
-15,29,4,-19,0,0,-47,14,8,61,-8,-17,-26,-13,35,-13,-33,38,-11,-37,Urge
-22,28,12,-31,1,4,-44,9,13,62,-8,-20,-32,-19,28,-19,-43,31,-28,-49,Urge
-29,25,17,-40,4,7,-40,8,21,68,-1,-18,-34,-21,24,-23,-50,25,-36,-57,Urge
-32,21,19,-44,10,9,-37,9,28,74,10,-13,-34,-21,22,-25,-57,17,-37,-62,Urge
-29,15,17,-39,17,10,-32,10,32,80,24,-7,-34,-20,23,-24,-61,6,-33,-63,Urge
-22,9,13,-26,26,13,-24,12,31,83,39,2,-34,-20,26,-18,-60,-5,-27,-58,Urge
-11,6,11,-9,33,15,-18,15,27,84,50,10,-33,-22,30,-11,-55,-15,-20,-47,Urge
0,7,9,1,36,16,-19,18,23,81,55,14,-34,-27,33,-5,-49,-24,-18,-35,Urge
10,12,8,1,35,15,-26,22,21,76,55,16,-36,-32,35,0,-41,-29,-18,-22,Urge
17,21,7,-3,34,15,-33,27,22,74,53,19,-35,-35,37,7,-29,-28,-14,-7,Urge
20,32,10,-6,35,17,-35,31,22,71,51,24,-30,-33,40,16,-16,-21,-1,9,Urge
21,43,16,-9,37,20,-32,34,19,70,49,29,-25,-27,44,25,-5,-12,20,18,Urge
24,51,22,-12,41,24,-22,34,14,69,47,33,-18,-21,47,31,1,-2,42,21,Urge
